Typical Measured Spectrum of Semrock BLP01-594R Optical Filter	
For wavelengths between 320 and 1120 nm, values near or below 3e-7 (Optical Density 6.5) are measurement noise limited.
For wavelengths < 320 nm and > 1120 nm, values near or below 3e-6 (Optical Density 5.5) are measurement noise limited. 
Data format:  Wavelength (nm) <tab> Transmission (0 to 1)
265.0	3.2356e-05
265.2	3.1665e-05
265.4	3.0989e-05
265.6	3.0327e-05
265.8	2.9679e-05
266.0	2.9045e-05
266.2	2.8425e-05
266.4	2.7818e-05
266.6	2.7224e-05
266.8	2.6642e-05
267.0	2.6073e-05
267.2	2.5377e-05
267.4	2.4684e-05
267.6	2.4009e-05
267.8	2.3353e-05
268.0	2.2715e-05
268.2	2.2094e-05
268.4	2.1491e-05
268.6	2.0903e-05
268.8	2.0332e-05
269.0	1.9777e-05
269.2	1.9236e-05
269.4	1.8711e-05
269.6	1.82e-05
269.8	1.7702e-05
270.0	1.7219e-05
270.2	1.6748e-05
270.4	1.6291e-05
270.6	1.5845e-05
270.8	1.4783e-05
271.0	1.1843e-05
271.2	9.4881e-06
271.4	7.6014e-06
271.6	6.0898e-06
271.8	4.8788e-06
272.0	3.9087e-06
272.2	3.1314e-06
272.4	2.5087e-06
272.6	2.0098e-06
272.8	1.6102e-06
273.0	1.29e-06
273.2	1.0335e-06
273.4	8.2796e-07
273.6	6.6331e-07
273.8	5.3141e-07
274.0	4.2574e-07
274.2	3.4108e-07
274.4	2.7325e-07
274.6	4.9834e-07
274.8	1.8061e-06
275.0	6.5456e-06
275.2	5.3729e-06
275.4	4.4103e-06
275.6	3.9391e-06
275.8	3.8624e-06
276.0	3.7872e-06
276.2	3.7135e-06
276.4	3.6412e-06
276.6	3.5704e-06
276.8	3.5009e-06
277.0	3.4327e-06
277.2	3.3659e-06
277.4	3.3004e-06
277.6	3.2361e-06
277.8	3.1732e-06
278.0	3.1114e-06
278.2	3.0508e-06
278.4	2.9914e-06
278.6	2.9332e-06
278.8	2.8761e-06
279.0	2.8201e-06
279.2	2.7652e-06
279.4	2.4322e-06
279.6	2.0837e-06
279.8	1.7852e-06
280.0	1.5294e-06
280.2	1.3103e-06
280.4	1.1225e-06
280.6	9.6169e-07
280.8	8.239e-07
281.0	7.0585e-07
281.2	6.0472e-07
281.4	5.1807e-07
281.6	4.4384e-07
281.8	3.8025e-07
282.0	3.2577e-07
282.2	2.7909e-07
282.4	2.391e-07
282.6	2.0484e-07
282.8	1.7549e-07
283.0	1.6216e-07
283.2	2.3846e-07
283.4	3.5065e-07
283.6	5.1562e-07
283.8	7.5821e-07
284.0	1.1149e-06
284.2	1.6395e-06
284.4	2.4108e-06
284.6	3.5451e-06
284.8	5.213e-06
285.0	7.6656e-06
285.2	7.5046e-06
285.4	7.347e-06
285.6	7.3283e-06
285.8	7.4366e-06
286.0	7.5466e-06
286.2	7.6581e-06
286.4	7.7713e-06
286.6	7.8862e-06
286.8	8.0028e-06
287.0	8.1211e-06
287.2	8.2412e-06
287.4	8.363e-06
287.6	8.4867e-06
287.8	8.6121e-06
288.0	8.7394e-06
288.2	8.8686e-06
288.4	8.9997e-06
288.6	9.1328e-06
288.8	9.2678e-06
289.0	9.4048e-06
289.2	9.5439e-06
289.4	8.8029e-06
289.6	7.9942e-06
289.8	7.2599e-06
290.0	6.5929e-06
290.2	5.9873e-06
290.4	5.4373e-06
290.6	4.9378e-06
290.8	4.4842e-06
291.0	4.0722e-06
291.2	3.6982e-06
291.4	3.3584e-06
291.6	3.0499e-06
291.8	2.7697e-06
292.0	2.5153e-06
292.2	2.2842e-06
292.4	2.0744e-06
292.6	1.8838e-06
292.8	1.7108e-06
293.0	1.5955e-06
293.2	1.6446e-06
293.4	1.6952e-06
293.6	1.7474e-06
293.8	1.8012e-06
294.0	1.8566e-06
294.2	1.9137e-06
294.4	1.9726e-06
294.6	2.0333e-06
294.8	2.0959e-06
295.0	2.1604e-06
295.2	2.3399e-06
295.4	2.5343e-06
295.6	2.7448e-06
295.8	2.9728e-06
296.0	3.2198e-06
296.2	3.4873e-06
296.4	3.777e-06
296.6	4.0907e-06
296.8	4.4306e-06
297.0	4.7986e-06
297.2	5.1973e-06
297.4	5.629e-06
297.6	6.0967e-06
297.8	6.6032e-06
298.0	6.9633e-06
298.2	6.2735e-06
298.4	5.652e-06
298.6	5.0921e-06
298.8	4.5876e-06
299.0	4.1332e-06
299.2	3.7237e-06
299.4	3.3548e-06
299.6	3.0225e-06
299.8	2.7231e-06
300.0	2.4533e-06
300.2	2.2103e-06
300.4	1.9913e-06
300.6	1.794e-06
300.8	1.6163e-06
301.0	1.4562e-06
301.2	1.3119e-06
301.4	1.182e-06
301.6	1.0649e-06
301.8	1.0545e-06
302.0	1.1478e-06
302.2	1.2493e-06
302.4	1.3598e-06
302.6	1.48e-06
302.8	1.6109e-06
303.0	1.7534e-06
303.2	1.9085e-06
303.4	2.0773e-06
303.6	2.261e-06
303.8	2.461e-06
304.0	2.6786e-06
304.2	2.9155e-06
304.4	3.1734e-06
304.6	3.4541e-06
304.8	3.7595e-06
305.0	4.092e-06
305.2	4.972e-06
305.4	6.0412e-06
305.6	6.9196e-06
305.8	6.6401e-06
306.0	6.3718e-06
306.2	6.1143e-06
306.4	5.8673e-06
306.6	5.6302e-06
306.8	5.4027e-06
307.0	5.1844e-06
307.2	4.9749e-06
307.4	4.7739e-06
307.6	4.581e-06
307.8	4.3959e-06
308.0	4.2183e-06
308.2	4.0479e-06
308.4	3.8843e-06
308.6	3.7274e-06
308.8	3.5768e-06
309.0	3.4322e-06
309.2	3.2936e-06
309.4	3.2744e-06
309.6	3.3382e-06
309.8	3.4032e-06
310.0	3.4695e-06
310.2	3.537e-06
310.4	3.6059e-06
310.6	3.6761e-06
310.8	3.7477e-06
311.0	3.8207e-06
311.2	3.8951e-06
311.4	3.971e-06
311.6	4.0483e-06
311.8	4.1272e-06
312.0	4.2076e-06
312.2	4.2895e-06
312.4	4.373e-06
312.6	4.4582e-06
312.8	4.545e-06
313.0	4.6336e-06
313.2	4.4481e-06
313.4	4.2493e-06
313.6	4.0593e-06
313.8	3.8779e-06
314.0	3.7045e-06
314.2	3.539e-06
314.4	3.3808e-06
314.6	3.2297e-06
314.8	3.0853e-06
315.0	2.9474e-06
315.2	2.8157e-06
315.4	2.6898e-06
315.6	2.5696e-06
315.8	2.4547e-06
316.0	2.345e-06
316.2	2.2402e-06
316.4	2.14e-06
316.6	2.0444e-06
316.8	1.8982e-06
317.0	1.638e-06
317.2	1.4135e-06
317.4	1.2198e-06
317.6	1.0526e-06
317.8	9.0834e-07
318.0	7.8385e-07
318.2	6.7642e-07
318.4	5.8371e-07
318.6	5.0371e-07
318.8	4.3467e-07
319.0	3.751e-07
319.2	3.2369e-07
319.4	2.7932e-07
319.6	2.4104e-07
319.8	2.08e-07
320.0	1.795e-07
320.2	1.5489e-07
320.4	1.3366e-07
320.6	1.3868e-07
320.8	1.5997e-07
321.0	1.8452e-07
321.2	2.1283e-07
321.4	2.4549e-07
321.6	2.8317e-07
321.8	3.2663e-07
322.0	3.7675e-07
322.2	4.3457e-07
322.4	5.0126e-07
322.6	5.7819e-07
322.8	6.6692e-07
323.0	7.6926e-07
323.2	8.8732e-07
323.4	1.0235e-06
323.6	1.1806e-06
323.8	1.3617e-06
324.0	1.5707e-06
324.2	1.8102e-06
324.4	1.7596e-06
324.6	1.7104e-06
324.8	1.6626e-06
325.0	1.6161e-06
325.2	1.5709e-06
325.4	1.527e-06
325.6	1.4843e-06
325.8	1.4428e-06
326.0	1.4025e-06
326.2	1.3633e-06
326.4	1.3252e-06
326.6	1.2881e-06
326.8	1.2521e-06
327.0	1.2171e-06
327.2	1.1831e-06
327.4	1.15e-06
327.6	1.1178e-06
327.8	1.0866e-06
328.0	1.065e-06
328.2	1.0583e-06
328.4	1.0517e-06
328.6	1.0451e-06
328.8	1.0386e-06
329.0	1.032e-06
329.2	1.0256e-06
329.4	1.0192e-06
329.6	1.0128e-06
329.8	1.0064e-06
330.0	1.0001e-06
330.2	9.9387e-07
330.4	9.8764e-07
330.6	9.8146e-07
330.8	9.7531e-07
331.0	9.692e-07
331.2	9.6313e-07
331.4	9.571e-07
331.6	9.511e-07
331.8	9.824e-07
332.0	1.0272e-06
332.2	1.074e-06
332.4	1.123e-06
332.6	1.1742e-06
332.8	1.2278e-06
333.0	1.2838e-06
333.2	1.3423e-06
333.4	1.4035e-06
333.6	1.4675e-06
333.8	1.5344e-06
334.0	1.6044e-06
334.2	1.6775e-06
334.4	1.754e-06
334.6	1.834e-06
334.8	1.9176e-06
335.0	2.0051e-06
335.2	2.2509e-06
335.4	2.5269e-06
335.6	2.7266e-06
335.8	2.6706e-06
336.0	2.6156e-06
336.2	2.5618e-06
336.4	2.5092e-06
336.6	2.4576e-06
336.8	2.407e-06
337.0	2.3575e-06
337.2	2.309e-06
337.4	2.2616e-06
337.6	2.215e-06
337.8	2.1695e-06
338.0	2.1249e-06
338.2	2.0812e-06
338.4	2.0384e-06
338.6	1.9965e-06
338.8	1.9554e-06
339.0	1.9152e-06
339.2	1.8758e-06
339.4	1.8626e-06
339.6	1.8629e-06
339.8	1.8633e-06
340.0	1.8636e-06
340.2	1.8639e-06
340.4	1.8642e-06
340.6	1.8645e-06
340.8	1.8648e-06
341.0	1.8652e-06
341.2	1.8655e-06
341.4	1.8658e-06
341.6	1.8661e-06
341.8	1.8664e-06
342.0	1.8667e-06
342.2	1.8671e-06
342.4	1.8674e-06
342.6	1.8677e-06
342.8	1.868e-06
343.0	1.8691e-06
343.2	1.8938e-06
343.4	1.9188e-06
343.6	1.9441e-06
343.8	1.9698e-06
344.0	1.9958e-06
344.2	2.0222e-06
344.4	2.0489e-06
344.6	2.0759e-06
344.8	2.1033e-06
345.0	2.1311e-06
345.2	2.1593e-06
345.4	2.1878e-06
345.6	2.2167e-06
345.8	2.246e-06
346.0	2.2756e-06
346.2	2.3057e-06
346.4	2.3361e-06
346.6	2.367e-06
346.8	2.3598e-06
347.0	2.2984e-06
347.2	2.2386e-06
347.4	2.1804e-06
347.6	2.1237e-06
347.8	2.0684e-06
348.0	2.0146e-06
348.2	1.9622e-06
348.4	1.9112e-06
348.6	1.8615e-06
348.8	1.8131e-06
349.0	1.7659e-06
349.2	1.72e-06
349.4	1.6753e-06
349.6	1.6317e-06
349.8	1.5892e-06
350.0	1.5479e-06
350.2	1.5077e-06
350.4	1.4684e-06
350.6	1.4643e-06
350.8	1.4687e-06
351.0	1.4732e-06
351.2	1.4776e-06
351.4	1.4821e-06
351.6	1.4866e-06
351.8	1.4911e-06
352.0	1.4957e-06
352.2	1.5002e-06
352.4	1.5047e-06
352.6	1.5093e-06
352.8	1.5139e-06
353.0	1.5185e-06
353.2	1.5231e-06
353.4	1.5277e-06
353.6	1.5323e-06
353.8	1.537e-06
354.0	1.5417e-06
354.2	1.5471e-06
354.4	1.556e-06
354.6	1.5649e-06
354.8	1.5739e-06
355.0	1.5829e-06
355.2	1.592e-06
355.4	1.6011e-06
355.6	1.6102e-06
355.8	1.6195e-06
356.0	1.6287e-06
356.2	1.6381e-06
356.4	1.6474e-06
356.6	1.6569e-06
356.8	1.6664e-06
357.0	1.6759e-06
357.2	1.6855e-06
357.4	1.6952e-06
357.6	1.7049e-06
357.8	1.7146e-06
358.0	1.7029e-06
358.2	1.6772e-06
358.4	1.6518e-06
358.6	1.6269e-06
358.8	1.6023e-06
359.0	1.578e-06
359.2	1.5542e-06
359.4	1.5307e-06
359.6	1.5075e-06
359.8	1.4848e-06
360.0	1.4623e-06
360.2	1.4402e-06
360.4	1.4184e-06
360.6	1.397e-06
360.8	1.3759e-06
361.0	1.3551e-06
361.2	1.3346e-06
361.4	1.3144e-06
361.6	1.2969e-06
361.8	1.4404e-06
362.0	1.5998e-06
362.2	1.7768e-06
362.4	1.9734e-06
362.6	2.1918e-06
362.8	2.4344e-06
363.0	2.7038e-06
363.2	3.003e-06
363.4	3.3353e-06
363.6	3.7044e-06
363.8	4.1143e-06
364.0	4.5696e-06
364.2	5.0753e-06
364.4	5.6369e-06
364.6	6.2607e-06
364.8	6.9535e-06
365.0	7.723e-06
365.2	7.8321e-06
365.4	7.9427e-06
365.6	8.0549e-06
365.8	8.1687e-06
366.0	8.2841e-06
366.2	8.4011e-06
366.4	8.5198e-06
366.6	8.6401e-06
366.8	8.7622e-06
367.0	8.7453e-06
367.2	8.5221e-06
367.4	8.3045e-06
367.6	8.0925e-06
367.8	7.886e-06
368.0	7.6847e-06
368.2	7.4885e-06
368.4	7.2973e-06
368.6	7.1111e-06
368.8	6.9295e-06
369.0	6.7527e-06
369.2	6.5803e-06
369.4	6.4123e-06
369.6	6.2486e-06
369.8	6.0891e-06
370.0	5.9337e-06
370.2	5.7822e-06
370.4	5.6346e-06
370.6	5.4908e-06
370.8	5.3386e-06
371.0	5.1873e-06
371.2	5.0403e-06
371.4	4.8975e-06
371.6	4.7587e-06
371.8	4.6239e-06
372.0	4.4929e-06
372.2	4.3656e-06
372.4	4.2418e-06
372.6	4.1217e-06
372.8	4.0049e-06
373.0	3.8914e-06
373.2	3.7811e-06
373.4	3.674e-06
373.6	3.5699e-06
373.8	3.4687e-06
374.0	3.3704e-06
374.2	3.2749e-06
374.4	3.1789e-06
374.6	3.0698e-06
374.8	2.9645e-06
375.0	2.8627e-06
375.2	2.7645e-06
375.4	2.6697e-06
375.6	2.5781e-06
375.8	2.4896e-06
376.0	2.4042e-06
376.2	2.3217e-06
376.4	2.242e-06
376.6	2.1651e-06
376.8	2.0908e-06
377.0	2.019e-06
377.2	1.9498e-06
377.4	1.8829e-06
377.6	1.8183e-06
377.8	1.7559e-06
378.0	1.6956e-06
378.2	1.6636e-06
378.4	1.6528e-06
378.6	1.642e-06
378.8	1.6312e-06
379.0	1.6206e-06
379.2	1.61e-06
379.4	1.5995e-06
379.6	1.589e-06
379.8	1.5786e-06
380.0	1.5683e-06
380.2	1.5581e-06
380.4	1.5479e-06
380.6	1.5378e-06
380.8	1.5277e-06
381.0	1.5177e-06
381.2	1.5078e-06
381.4	1.498e-06
381.6	1.4882e-06
381.8	1.4785e-06
382.0	1.426e-06
382.2	1.3737e-06
382.4	1.3233e-06
382.6	1.2748e-06
382.8	1.228e-06
383.0	1.183e-06
383.2	1.1396e-06
383.4	1.0978e-06
383.6	1.0575e-06
383.8	1.0187e-06
384.0	9.8134e-07
384.2	9.4535e-07
384.4	9.1067e-07
384.6	8.7727e-07
384.8	8.4509e-07
385.0	8.1409e-07
385.2	7.8423e-07
385.4	7.5546e-07
385.6	7.3942e-07
385.8	7.4357e-07
386.0	7.4774e-07
386.2	7.5194e-07
386.4	7.5617e-07
386.6	7.6041e-07
386.8	7.6468e-07
387.0	7.6898e-07
387.2	7.733e-07
387.4	7.7764e-07
387.6	7.8201e-07
387.8	7.864e-07
388.0	7.9081e-07
388.2	7.9526e-07
388.4	7.9972e-07
388.6	8.0421e-07
388.8	8.0873e-07
389.0	8.1327e-07
389.2	8.1784e-07
389.4	7.2642e-07
389.6	6.2365e-07
389.8	5.3542e-07
390.0	4.5968e-07
390.2	3.9465e-07
390.4	3.3881e-07
390.6	2.9088e-07
390.8	2.4973e-07
391.0	2.144e-07
391.2	1.8407e-07
391.4	1.5803e-07
391.6	1.3567e-07
391.8	1.1648e-07
392.0	1.0e-07
392.2	1.0e-07
392.4	1.0e-07
392.6	1.0e-07
392.8	1.0e-07
393.0	1.0e-07
393.2	1.0e-07
393.4	1.0e-07
393.6	1.0e-07
393.8	1.0e-07
394.0	1.0e-07
394.2	1.0e-07
394.4	1.0e-07
394.6	1.0e-07
394.8	1.0e-07
395.0	1.0e-07
395.2	1.0e-07
395.4	1.0e-07
395.6	1.0e-07
395.8	1.0e-07
396.0	1.0e-07
396.2	1.0e-07
396.4	1.0e-07
396.6	1.0e-07
396.8	1.0e-07
397.0	1.0e-07
397.2	1.0e-07
397.4	1.0e-07
397.6	1.0e-07
397.8	1.0e-07
398.0	1.0e-07
398.2	1.0e-07
398.4	1.0e-07
398.6	1.0e-07
398.8	1.0e-07
399.0	1.0e-07
399.2	1.0e-07
399.4	1.0e-07
399.6	1.0e-07
399.8	1.0e-07
400.0	1.0e-07
400.2	1.0e-07
400.4	1.0e-07
400.6	1.0e-07
400.8	1.0e-07
401.0	1.0e-07
401.2	1.0e-07
401.4	1.0e-07
401.6	1.0e-07
401.8	1.0e-07
402.0	1.0e-07
402.2	1.0e-07
402.4	1.0e-07
402.6	1.0e-07
402.8	1.0e-07
403.0	1.0e-07
403.2	1.0e-07
403.4	1.0e-07
403.6	1.0e-07
403.8	1.0e-07
404.0	1.0e-07
404.2	1.0e-07
404.4	1.0e-07
404.6	1.0e-07
404.8	1.0e-07
405.0	1.0e-07
405.2	1.0e-07
405.4	1.0e-07
405.6	1.0e-07
405.8	1.0e-07
406.0	1.0e-07
406.2	1.0e-07
406.4	1.0e-07
406.6	1.0e-07
406.8	1.0e-07
407.0	1.0e-07
407.2	1.0e-07
407.4	1.0e-07
407.6	1.0e-07
407.8	1.0e-07
408.0	1.0e-07
408.2	1.0e-07
408.4	1.0e-07
408.6	1.0e-07
408.8	1.0e-07
409.0	1.0e-07
409.2	1.0e-07
409.4	1.0e-07
409.6	1.0e-07
409.8	1.0e-07
410.0	1.0e-07
410.2	1.0e-07
410.4	1.0e-07
410.6	1.0e-07
410.8	1.0e-07
411.0	1.0e-07
411.2	1.0e-07
411.4	1.0e-07
411.6	1.0e-07
411.8	1.0e-07
412.0	1.0e-07
412.2	1.0e-07
412.4	1.0e-07
412.6	1.0e-07
412.8	1.0e-07
413.0	1.0e-07
413.2	1.0e-07
413.4	1.0e-07
413.6	1.0e-07
413.8	1.0e-07
414.0	1.0e-07
414.2	1.0e-07
414.4	1.0e-07
414.6	1.0e-07
414.8	1.0e-07
415.0	1.0e-07
415.2	1.0e-07
415.4	1.0e-07
415.6	1.0e-07
415.8	1.0e-07
416.0	1.0e-07
416.2	1.0e-07
416.4	1.0e-07
416.6	1.0e-07
416.8	1.0e-07
417.0	1.0e-07
417.2	1.0e-07
417.4	1.0e-07
417.6	1.0e-07
417.8	1.0e-07
418.0	1.0e-07
418.2	1.0e-07
418.4	1.0e-07
418.6	1.0e-07
418.8	1.0e-07
419.0	1.0e-07
419.2	1.0e-07
419.4	1.0e-07
419.6	1.0e-07
419.8	1.0e-07
420.0	1.0e-07
420.2	1.0e-07
420.4	1.0e-07
420.6	1.0e-07
420.8	1.0e-07
421.0	1.0e-07
421.2	1.0e-07
421.4	1.0e-07
421.6	1.0e-07
421.8	1.0e-07
422.0	1.0e-07
422.2	1.0e-07
422.4	1.0e-07
422.6	1.0e-07
422.8	1.0e-07
423.0	1.0e-07
423.2	1.0e-07
423.4	1.0e-07
423.6	1.0e-07
423.8	1.0e-07
424.0	1.0e-07
424.2	1.0e-07
424.4	1.0e-07
424.6	1.0e-07
424.8	1.0e-07
425.0	1.0e-07
425.2	1.0e-07
425.4	1.0e-07
425.6	1.0e-07
425.8	1.0e-07
426.0	1.0e-07
426.2	1.0e-07
426.4	1.5817e-07
426.6	2.9151e-07
426.8	5.3724e-07
427.0	9.9011e-07
427.2	1.0381e-06
427.4	1.0884e-06
427.6	1.1412e-06
427.8	1.1965e-06
428.0	1.2545e-06
428.2	1.3153e-06
428.4	1.3791e-06
428.6	1.4459e-06
428.8	1.516e-06
429.0	1.5895e-06
429.2	1.6666e-06
429.4	1.7474e-06
429.6	1.8321e-06
429.8	1.9209e-06
430.0	2.014e-06
430.2	2.1106e-06
430.4	2.1998e-06
430.6	2.2929e-06
430.8	2.3898e-06
431.0	2.4909e-06
431.2	2.5962e-06
431.4	2.706e-06
431.6	2.8205e-06
431.8	2.9398e-06
432.0	3.0641e-06
432.2	3.1937e-06
432.4	3.3287e-06
432.6	3.4695e-06
432.8	3.6162e-06
433.0	3.7691e-06
433.2	3.9285e-06
433.4	4.0947e-06
433.6	4.2678e-06
433.8	4.4483e-06
434.0	4.5768e-06
434.2	4.6585e-06
434.4	4.7415e-06
434.6	4.8261e-06
434.8	4.9122e-06
435.0	4.9998e-06
435.2	5.0889e-06
435.4	5.1797e-06
435.6	5.2721e-06
435.8	5.3661e-06
436.0	5.4618e-06
436.2	5.5592e-06
436.4	5.6583e-06
436.6	5.7593e-06
436.8	5.862e-06
437.0	5.9665e-06
437.2	6.0729e-06
437.4	6.1812e-06
437.6	6.2929e-06
437.8	6.5015e-06
438.0	6.7171e-06
438.2	6.9398e-06
438.4	7.1699e-06
438.6	7.4076e-06
438.8	7.6532e-06
439.0	7.907e-06
439.2	8.1691e-06
439.4	8.44e-06
439.6	8.7198e-06
439.8	9.009e-06
440.0	9.3077e-06
440.2	9.6163e-06
440.4	9.9351e-06
440.6	1.0265e-05
440.8	1.0605e-05
441.0	1.0956e-05
441.2	1.132e-05
441.4	1.1529e-05
441.6	1.1571e-05
441.8	1.1614e-05
442.0	1.1657e-05
442.2	1.17e-05
442.4	1.1743e-05
442.6	1.1786e-05
442.8	1.183e-05
443.0	1.1874e-05
443.2	1.1917e-05
443.4	1.1961e-05
443.6	1.2006e-05
443.8	1.205e-05
444.0	1.2094e-05
444.2	1.2139e-05
444.4	1.2184e-05
444.6	1.2229e-05
444.8	1.2274e-05
445.0	1.2319e-05
445.2	1.2129e-05
445.4	1.1939e-05
445.6	1.1752e-05
445.8	1.1568e-05
446.0	1.1387e-05
446.2	1.1209e-05
446.4	1.1033e-05
446.6	1.0861e-05
446.8	1.0691e-05
447.0	1.0524e-05
447.2	1.0359e-05
447.4	1.0197e-05
447.6	1.0037e-05
447.8	9.88e-06
448.0	9.7254e-06
448.2	9.5732e-06
448.4	9.4234e-06
448.6	9.2759e-06
448.8	9.1722e-06
449.0	9.1125e-06
449.2	9.0531e-06
449.4	8.9942e-06
449.6	8.9357e-06
449.8	8.8775e-06
450.0	8.8197e-06
450.2	8.7623e-06
450.4	8.7053e-06
450.6	8.6486e-06
450.8	8.5923e-06
451.0	8.5364e-06
451.2	8.4808e-06
451.4	8.4256e-06
451.6	8.3708e-06
451.8	8.3163e-06
452.0	8.2621e-06
452.2	8.2084e-06
452.4	8.156e-06
452.6	8.3101e-06
452.8	8.4672e-06
453.0	8.6272e-06
453.2	8.7902e-06
453.4	8.9564e-06
453.6	9.1256e-06
453.8	9.2981e-06
454.0	9.4738e-06
454.2	9.6529e-06
454.4	9.8353e-06
454.6	1.0021e-05
454.8	1.0211e-05
455.0	1.0404e-05
455.2	1.06e-05
455.4	1.0801e-05
455.6	1.1005e-05
455.8	1.1213e-05
456.0	1.1425e-05
456.2	1.1543e-05
456.4	1.1574e-05
456.6	1.1604e-05
456.8	1.1635e-05
457.0	1.1666e-05
457.2	1.1698e-05
457.4	1.1729e-05
457.6	1.176e-05
457.8	1.1791e-05
458.0	1.1823e-05
458.2	1.1854e-05
458.4	1.1886e-05
458.6	1.1918e-05
458.8	1.1949e-05
459.0	1.1981e-05
459.2	1.2013e-05
459.4	1.2045e-05
459.6	1.2077e-05
459.8	1.2102e-05
460.0	1.2001e-05
460.2	1.1901e-05
460.4	1.1802e-05
460.6	1.1704e-05
460.8	1.1607e-05
461.0	1.151e-05
461.2	1.1415e-05
461.4	1.132e-05
461.6	1.1225e-05
461.8	1.1132e-05
462.0	1.104e-05
462.2	1.0948e-05
462.4	1.0857e-05
462.6	1.0766e-05
462.8	1.0677e-05
463.0	1.0588e-05
463.2	1.05e-05
463.4	1.0413e-05
463.6	1.0244e-05
463.8	1.0026e-05
464.0	9.8131e-06
464.2	9.6044e-06
464.4	9.4001e-06
464.6	9.2002e-06
464.8	9.0045e-06
465.0	8.813e-06
465.2	8.6256e-06
465.4	8.4422e-06
465.6	8.2626e-06
465.8	8.0869e-06
466.0	7.9149e-06
466.2	7.7466e-06
466.4	7.5818e-06
466.6	7.4205e-06
466.8	7.2627e-06
467.0	7.1083e-06
467.2	6.6441e-06
467.4	4.832e-06
467.6	3.5141e-06
467.8	2.5557e-06
468.0	1.8586e-06
468.2	1.711e-06
468.4	1.5752e-06
468.6	1.4501e-06
468.8	1.3349e-06
469.0	1.2289e-06
469.2	1.1313e-06
469.4	1.0415e-06
469.6	9.5881e-07
469.8	8.8267e-07
470.0	8.1258e-07
470.2	7.4805e-07
470.4	6.8865e-07
470.6	6.3742e-07
470.8	6.3081e-07
471.0	6.2427e-07
471.2	6.1779e-07
471.4	6.1139e-07
471.6	6.0505e-07
471.8	5.9877e-07
472.0	5.9256e-07
472.2	5.8642e-07
472.4	5.8034e-07
472.6	5.7432e-07
472.8	5.6836e-07
473.0	5.6247e-07
473.2	5.5664e-07
473.4	5.5086e-07
473.6	5.4515e-07
473.8	5.395e-07
474.0	5.339e-07
474.2	5.2837e-07
474.4	5.2723e-07
474.6	5.2906e-07
474.8	5.3089e-07
475.0	5.3273e-07
475.2	5.3458e-07
475.4	5.3643e-07
475.6	5.3829e-07
475.8	5.4016e-07
476.0	5.4203e-07
476.2	5.4391e-07
476.4	5.458e-07
476.6	5.4769e-07
476.8	5.4959e-07
477.0	5.5149e-07
477.2	5.534e-07
477.4	5.5532e-07
477.6	5.5725e-07
477.8	5.5918e-07
478.0	5.5976e-07
478.2	5.5045e-07
478.4	5.4129e-07
478.6	5.3228e-07
478.8	5.2343e-07
479.0	5.1472e-07
479.2	5.0616e-07
479.4	4.9774e-07
479.6	4.8946e-07
479.8	4.8132e-07
480.0	4.7331e-07
480.2	4.6544e-07
480.4	4.5769e-07
480.6	4.5008e-07
480.8	4.4259e-07
481.0	4.3523e-07
481.2	4.2799e-07
481.4	4.2087e-07
481.6	4.1387e-07
481.8	4.1179e-07
482.0	4.1221e-07
482.2	4.1264e-07
482.4	4.1306e-07
482.6	4.1349e-07
482.8	4.1391e-07
483.0	4.1434e-07
483.2	4.1476e-07
483.4	4.1519e-07
483.6	4.1562e-07
483.8	4.1604e-07
484.0	4.1647e-07
484.2	4.169e-07
484.4	4.1733e-07
484.6	4.1776e-07
484.8	4.1819e-07
485.0	4.1862e-07
485.2	4.1905e-07
485.4	4.1969e-07
485.6	4.2119e-07
485.8	4.2269e-07
486.0	4.2419e-07
486.2	4.257e-07
486.4	4.2722e-07
486.6	4.2874e-07
486.8	4.3027e-07
487.0	4.318e-07
487.2	4.3334e-07
487.4	4.3488e-07
487.6	4.3643e-07
487.8	4.3798e-07
488.0	4.3954e-07
488.2	4.411e-07
488.4	4.4268e-07
488.6	4.4425e-07
488.8	4.4583e-07
489.0	4.4742e-07
489.2	4.4711e-07
489.4	4.4621e-07
489.6	4.4531e-07
489.8	4.4441e-07
490.0	4.4352e-07
490.2	4.4263e-07
490.4	4.4174e-07
490.6	4.4085e-07
490.8	4.3996e-07
491.0	4.3908e-07
491.2	4.3819e-07
491.4	4.3731e-07
491.6	4.3643e-07
491.8	4.3555e-07
492.0	4.3468e-07
492.2	4.338e-07
492.4	4.3293e-07
492.6	4.3206e-07
492.8	4.3076e-07
493.0	4.286e-07
493.2	4.2645e-07
493.4	4.2432e-07
493.6	4.2219e-07
493.8	4.2008e-07
494.0	4.1798e-07
494.2	4.1589e-07
494.4	4.138e-07
494.6	4.1173e-07
494.8	4.0967e-07
495.0	4.0762e-07
495.2	4.0558e-07
495.4	4.0355e-07
495.6	4.0153e-07
495.8	3.9952e-07
496.0	3.9752e-07
496.2	3.9553e-07
496.4	3.9355e-07
496.6	3.9008e-07
496.8	3.8649e-07
497.0	3.8294e-07
497.2	3.7941e-07
497.4	3.7592e-07
497.6	3.7247e-07
497.8	3.6904e-07
498.0	3.6565e-07
498.2	3.6228e-07
498.4	3.5895e-07
498.6	3.5565e-07
498.8	3.5238e-07
499.0	3.4914e-07
499.2	3.4593e-07
499.4	3.4274e-07
499.6	3.3959e-07
499.8	3.3647e-07
500.0	3.3337e-07
500.2	3.296e-07
500.4	3.2587e-07
500.6	3.2218e-07
500.8	3.1854e-07
501.0	3.1889e-07
501.2	3.1934e-07
501.4	3.1978e-07
501.6	3.2022e-07
501.8	3.2067e-07
502.0	3.2111e-07
502.2	3.2155e-07
502.4	3.22e-07
502.6	3.2245e-07
502.8	3.2289e-07
503.0	3.2334e-07
503.2	3.2379e-07
503.4	3.2424e-07
503.6	3.2468e-07
503.8	3.2513e-07
504.0	3.2558e-07
504.2	3.2604e-07
504.4	3.2649e-07
504.6	3.2602e-07
504.8	3.2466e-07
505.0	3.233e-07
505.2	3.2195e-07
505.4	3.206e-07
505.6	3.1927e-07
505.8	3.1793e-07
506.0	3.166e-07
506.2	3.1528e-07
506.4	3.1396e-07
506.6	3.1265e-07
506.8	3.1134e-07
507.0	3.1004e-07
507.2	3.0875e-07
507.4	3.0746e-07
507.6	3.0617e-07
507.8	3.0489e-07
508.0	3.0362e-07
508.2	3.0248e-07
508.4	3.0416e-07
508.6	3.0585e-07
508.8	3.0755e-07
509.0	3.0925e-07
509.2	3.1097e-07
509.4	3.127e-07
509.6	3.1443e-07
509.8	3.1618e-07
510.0	3.1793e-07
510.2	3.197e-07
510.4	3.2147e-07
510.6	3.2325e-07
510.8	3.2505e-07
511.0	3.2685e-07
511.2	3.2867e-07
511.4	3.3049e-07
511.6	3.3232e-07
511.8	3.3417e-07
512.0	3.3659e-07
512.2	3.3942e-07
512.4	3.4227e-07
512.6	3.4515e-07
512.8	3.4806e-07
513.0	3.5099e-07
513.2	3.5394e-07
513.4	3.5692e-07
513.6	3.5992e-07
513.8	3.6295e-07
514.0	3.66e-07
514.2	3.6908e-07
514.4	3.7218e-07
514.6	3.7532e-07
514.8	3.7847e-07
515.0	3.8166e-07
515.2	3.8487e-07
515.4	3.8811e-07
515.6	3.9128e-07
515.8	3.9396e-07
516.0	3.9665e-07
516.2	3.9936e-07
516.4	4.0209e-07
516.6	4.0483e-07
516.8	4.076e-07
517.0	4.1039e-07
517.2	4.1319e-07
517.4	4.1601e-07
517.6	4.1885e-07
517.8	4.2172e-07
518.0	4.246e-07
518.2	4.275e-07
518.4	4.3042e-07
518.6	4.3336e-07
518.8	4.3632e-07
519.0	4.393e-07
519.2	4.4231e-07
519.4	4.461e-07
519.6	4.5025e-07
519.8	4.5444e-07
520.0	4.5866e-07
520.2	4.6292e-07
520.4	4.6723e-07
520.6	4.7157e-07
520.8	4.7596e-07
521.0	4.8038e-07
521.2	4.8485e-07
521.4	4.8936e-07
521.6	4.9391e-07
521.8	4.985e-07
522.0	5.0313e-07
522.2	5.0781e-07
522.4	5.1253e-07
522.6	5.173e-07
522.8	5.2211e-07
523.0	5.2652e-07
523.2	5.2986e-07
523.4	5.3323e-07
523.6	5.3662e-07
523.8	5.4002e-07
524.0	5.4345e-07
524.2	5.469e-07
524.4	5.5038e-07
524.6	5.5387e-07
524.8	5.5739e-07
525.0	5.6093e-07
525.2	5.6449e-07
525.4	5.6807e-07
525.6	5.7168e-07
525.8	5.7531e-07
526.0	5.7897e-07
526.2	5.8264e-07
526.4	5.8634e-07
526.6	5.9006e-07
526.8	5.4953e-07
527.0	5.0588e-07
527.2	4.657e-07
527.4	4.2872e-07
527.6	3.9467e-07
527.8	3.6332e-07
528.0	3.3447e-07
528.2	3.079e-07
528.4	2.8345e-07
528.6	2.6094e-07
528.8	2.4021e-07
529.0	2.2113e-07
529.2	2.0357e-07
529.4	1.874e-07
529.6	1.7252e-07
529.8	1.5882e-07
530.0	1.462e-07
530.2	1.3459e-07
530.4	1.239e-07
530.6	1.1406e-07
530.8	1.05e-07
531.0	9.6662e-08
531.2	8.8985e-08
531.4	8.1918e-08
531.6	7.919e-08
531.8	7.949e-08
532.0	7.9792e-08
532.2	8.0094e-08
532.4	8.0398e-08
532.6	8.0702e-08
532.8	8.1008e-08
533.0	8.1315e-08
533.2	8.1624e-08
533.4	8.1933e-08
533.6	8.2244e-08
533.8	8.2555e-08
534.0	8.2868e-08
534.2	8.3182e-08
534.4	8.3498e-08
534.6	8.3814e-08
534.8	8.4132e-08
535.0	8.4451e-08
535.2	8.5125e-08
535.4	8.5816e-08
535.6	8.6513e-08
535.8	8.7215e-08
536.0	8.7923e-08
536.2	8.8637e-08
536.4	8.9357e-08
536.6	9.0082e-08
536.8	9.0813e-08
537.0	9.1551e-08
537.2	9.2294e-08
537.4	9.3043e-08
537.6	9.3798e-08
537.8	9.456e-08
538.0	9.5327e-08
538.2	9.6101e-08
538.4	9.6881e-08
538.6	9.7668e-08
538.8	9.8461e-08
539.0	9.926e-08
539.2	1.0007e-07
539.4	1.0088e-07
539.6	1.017e-07
539.8	1.0252e-07
540.0	1.0282e-07
540.2	1.0252e-07
540.4	1.0222e-07
540.6	1.0192e-07
540.8	1.0163e-07
541.0	1.0133e-07
541.2	1.0103e-07
541.4	1.0074e-07
541.6	1.0044e-07
541.8	1.0015e-07
542.0	9.9859e-08
542.2	9.9568e-08
542.4	9.9277e-08
542.6	9.8987e-08
542.8	9.8698e-08
543.0	9.841e-08
543.2	9.8123e-08
543.4	9.7836e-08
543.6	9.7551e-08
543.8	9.7266e-08
544.0	9.6982e-08
544.2	9.6699e-08
544.4	9.6416e-08
544.6	9.6135e-08
544.8	9.5854e-08
545.0	9.6331e-08
545.2	9.6833e-08
545.4	9.7338e-08
545.6	9.7846e-08
545.8	9.8356e-08
546.0	9.887e-08
546.2	9.9385e-08
546.4	9.9904e-08
546.6	1.0042e-07
546.8	1.0095e-07
547.0	1.0148e-07
547.2	1.02e-07
547.4	1.0254e-07
547.6	1.0307e-07
547.8	1.0361e-07
548.0	1.0415e-07
548.2	1.0469e-07
548.4	1.0524e-07
548.6	1.0579e-07
548.8	1.0634e-07
549.0	1.0689e-07
549.2	1.0745e-07
549.4	1.0801e-07
549.6	1.0858e-07
549.8	1.093e-07
550.0	1.1022e-07
550.2	1.1115e-07
550.4	1.1208e-07
550.6	1.1302e-07
550.8	1.1397e-07
551.0	1.1492e-07
551.2	1.1589e-07
551.4	1.1686e-07
551.6	1.1784e-07
551.8	1.1883e-07
552.0	1.1982e-07
552.2	1.2083e-07
552.4	1.2184e-07
552.6	1.2286e-07
552.8	1.239e-07
553.0	1.2493e-07
553.2	1.2598e-07
553.4	1.2704e-07
553.6	1.2811e-07
553.8	1.2918e-07
554.0	1.3026e-07
554.2	1.3136e-07
554.4	1.3246e-07
554.6	1.3357e-07
554.8	1.338e-07
555.0	1.3399e-07
555.2	1.3419e-07
555.4	1.3439e-07
555.6	1.3459e-07
555.8	1.3479e-07
556.0	1.3499e-07
556.2	1.3519e-07
556.4	1.3539e-07
556.6	1.3559e-07
556.8	1.3579e-07
557.0	1.36e-07
557.2	1.362e-07
557.4	1.364e-07
557.6	1.366e-07
557.8	1.368e-07
558.0	1.3701e-07
558.2	1.3721e-07
558.4	1.3741e-07
558.6	1.3762e-07
558.8	1.3782e-07
559.0	1.3803e-07
559.2	1.3823e-07
559.4	1.3844e-07
559.6	1.387e-07
559.8	1.3903e-07
560.0	1.3936e-07
560.2	1.3969e-07
560.4	1.4002e-07
560.6	1.4035e-07
560.8	1.4069e-07
561.0	1.4102e-07
561.2	1.4135e-07
561.4	1.4169e-07
561.6	1.4202e-07
561.8	1.4236e-07
562.0	1.427e-07
562.2	1.4304e-07
562.4	1.4338e-07
562.6	1.4372e-07
562.8	1.4406e-07
563.0	1.444e-07
563.2	1.4474e-07
563.4	1.4508e-07
563.6	1.4543e-07
563.8	1.4577e-07
564.0	1.4612e-07
564.2	1.4646e-07
564.4	1.4681e-07
564.6	1.4762e-07
564.8	1.4844e-07
565.0	1.4926e-07
565.2	1.5009e-07
565.4	1.5093e-07
565.6	1.5177e-07
565.8	1.5261e-07
566.0	1.5346e-07
566.2	1.5432e-07
566.4	1.5517e-07
566.6	1.5604e-07
566.8	1.569e-07
567.0	1.5778e-07
567.2	1.5865e-07
567.4	1.5954e-07
567.6	1.6042e-07
567.8	1.6132e-07
568.0	1.6221e-07
568.2	1.6311e-07
568.4	1.6402e-07
568.6	1.6493e-07
568.8	1.6585e-07
569.0	1.6677e-07
569.2	1.677e-07
569.4	1.6837e-07
569.6	1.6876e-07
569.8	1.6915e-07
570.0	1.6955e-07
570.2	1.6994e-07
570.4	1.7033e-07
570.6	1.7073e-07
570.8	1.7112e-07
571.0	1.7152e-07
571.2	1.7191e-07
571.4	1.7231e-07
571.6	1.7271e-07
571.8	1.7311e-07
572.0	1.7351e-07
572.2	1.7391e-07
572.4	1.7432e-07
572.6	1.7472e-07
572.8	1.7512e-07
573.0	1.7553e-07
573.2	1.7594e-07
573.4	1.7634e-07
573.6	1.7675e-07
573.8	1.7716e-07
574.0	1.7757e-07
574.2	1.7798e-07
574.4	1.7915e-07
574.6	1.8035e-07
574.8	1.8156e-07
575.0	1.8277e-07
575.2	1.84e-07
575.4	1.8523e-07
575.6	1.8647e-07
575.8	1.8772e-07
576.0	1.8898e-07
576.2	1.9024e-07
576.4	1.9152e-07
576.6	1.928e-07
576.8	1.9409e-07
577.0	1.9539e-07
577.2	1.967e-07
577.4	1.9802e-07
577.6	1.9935e-07
577.8	2.0068e-07
578.0	2.0202e-07
578.2	2.0338e-07
578.4	2.0474e-07
578.6	2.0611e-07
578.8	2.0749e-07
579.0	2.0888e-07
579.2	2.1006e-07
579.4	2.1098e-07
579.6	2.1191e-07
579.8	2.1284e-07
580.0	2.1378e-07
580.2	2.1472e-07
580.4	2.1566e-07
580.6	2.1661e-07
580.8	2.1756e-07
581.0	2.1852e-07
581.2	2.1948e-07
581.4	2.2044e-07
581.6	2.2141e-07
581.8	2.2239e-07
582.0	2.2337e-07
582.2	2.2435e-07
582.4	2.2533e-07
582.6	2.2632e-07
582.8	2.2732e-07
583.0	2.296e-07
583.2	2.3241e-07
583.4	2.3526e-07
583.6	2.3815e-07
583.8	2.4107e-07
584.0	2.4402e-07
584.2	2.4702e-07
584.4	2.5004e-07
584.6	2.5311e-07
584.8	2.5621e-07
585.0	2.5936e-07
585.2	2.6254e-07
585.4	2.6576e-07
585.6	2.6901e-07
585.8	2.7231e-07
586.0	2.7565e-07
586.2	2.7903e-07
586.4	2.8231e-07
586.6	2.8496e-07
586.8	2.8764e-07
587.0	2.9034e-07
587.2	2.9307e-07
587.4	2.9583e-07
587.6	2.9861e-07
587.8	3.0142e-07
588.0	3.0425e-07
588.2	3.0711e-07
588.4	3.0999e-07
588.6	3.1291e-07
588.8	2.8549e-07
589.0	2.2384e-07
589.2	1.7551e-07
589.4	1.3761e-07
589.6	1.0789e-07
589.8	8.4593e-08
590.0	6.6326e-08
590.2	5.2003e-08
590.4	5.5709e-08
590.6	6.8222e-08
590.8	8.0307e-08
591.0	8.0304e-08
591.2	8.0301e-08
591.4	7.2253e-08
591.6	6.1164e-08
591.8	4.929e-08
592.0	3.9722e-08
592.2	4.0251e-08
592.4	4.4489e-08
592.6	5.0172e-08
592.8	6.0759e-08
593.0	7.7227e-08
593.2	1.0012e-07
593.4	1.1673e-07
593.6	9.0213e-08
593.8	6.9719e-08
594.0	8.194e-08
594.2	1.0803e-07
594.4	1.0804e-07
594.6	1.0806e-07
594.8	1.034e-07
595.0	9.6939e-08
595.2	1.0001e-07
595.4	1.5729e-07
595.6	1.7414e-07
595.8	1.6761e-07
596.0	1.7161e-07
596.2	2.2013e-07
596.4	2.8239e-07
596.6	3.2089e-07
596.8	3.5135e-07
597.0	4.0418e-07
597.2	4.6496e-07
597.4	5.4596e-07
597.6	6.4687e-07
597.8	7.6516e-07
598.0	8.9876e-07
598.2	1.1018e-06
598.4	1.3782e-06
598.6	1.7159e-06
598.8	2.0905e-06
599.0	2.5469e-06
599.2	3.0915e-06
599.4	3.7643e-06
599.6	4.6685e-06
599.8	5.7898e-06
600.0	7.2655e-06
600.2	9.1612e-06
600.4	1.1507e-05
600.6	1.4235e-05
600.8	1.8007e-05
601.0	2.3003e-05
601.2	2.9449e-05
601.4	3.8048e-05
601.6	4.9158e-05
601.8	6.3793e-05
602.0	8.3366e-05
602.2	1.0949e-04
602.4	1.4435e-04
602.6	1.9097e-04
602.8	2.5409e-04
603.0	3.4199e-04
603.2	4.5164e-04
603.4	6.1017e-04
603.6	8.3603e-04
603.8	0.00116
604.0	0.00161
604.2	0.00225
604.4	0.00321
604.6	0.00449
604.8	0.00648
605.0	0.00949
605.2	0.01408
605.4	0.02107
605.6	0.03219
605.8	0.04771
606.0	0.0732
606.2	0.11445
606.4	0.17938
606.6	0.27518
606.8	0.40682
607.0	0.56647
607.2	0.84871
607.4	0.92346
607.6	0.96053
607.8	0.97422
608.0	0.98032
608.2	0.98421
608.4	0.98345
608.6	0.98392
608.8	0.98464
609.0	0.98603
609.2	0.98703
609.4	0.98884
609.6	0.98961
609.8	0.98987
610.0	0.98948
610.2	0.98852
610.4	0.98799
610.6	0.98726
610.8	0.98687
611.0	0.98652
611.2	0.98678
611.4	0.98673
611.6	0.98717
611.8	0.9884
612.0	0.98875
612.2	0.98887
612.4	0.98951
612.6	0.99034
612.8	0.99027
613.0	0.99076
613.2	0.99063
613.4	0.99083
613.6	0.98958
613.8	0.98914
614.0	0.98901
614.2	0.98822
614.4	0.98791
614.6	0.98758
614.8	0.98763
615.0	0.98756
615.2	0.98708
615.4	0.98835
615.6	0.98836
615.8	0.98829
616.0	0.98911
616.2	0.98949
616.4	0.9897
616.6	0.99106
616.8	0.99081
617.0	0.99138
617.2	0.99189
617.4	0.99215
617.6	0.99194
617.8	0.99232
618.0	0.99245
618.2	0.99172
618.4	0.9915
618.6	0.99111
618.8	0.99002
619.0	0.98958
619.2	0.98972
619.4	0.98887
619.6	0.98853
619.8	0.98887
620.0	0.98848
620.2	0.98818
620.4	0.98791
620.6	0.98826
620.8	0.9881
621.0	0.98807
621.2	0.98766
621.4	0.98839
621.6	0.98892
621.8	0.98924
622.0	0.9895
622.2	0.99059
622.4	0.9907
622.6	0.99132
622.8	0.99108
623.0	0.99182
623.2	0.99237
623.4	0.99275
623.6	0.99253
623.8	0.9927
624.0	0.99253
624.2	0.99288
624.4	0.99285
624.6	0.99219
624.8	0.99238
625.0	0.99172
625.2	0.99123
625.4	0.991
625.6	0.99097
625.8	0.99073
626.0	0.99035
626.2	0.99041
626.4	0.99022
626.6	0.9894
626.8	0.98945
627.0	0.98972
627.2	0.9894
627.4	0.9894
627.6	0.98965
627.8	0.9898
628.0	0.98983
628.2	0.99007
628.4	0.99045
628.6	0.99076
628.8	0.99137
629.0	0.99166
629.2	0.99156
629.4	0.99158
629.6	0.99254
629.8	0.99283
630.0	0.99272
630.2	0.99324
630.4	0.99321
630.6	0.99324
630.8	0.99348
631.0	0.99421
631.2	0.99366
631.4	0.99386
631.6	0.99377
631.8	0.99278
632.0	0.99337
632.2	0.99282
632.4	0.99269
632.6	0.99254
632.8	0.99249
633.0	0.99231
633.2	0.9915
633.4	0.99165
633.6	0.99184
633.8	0.99158
634.0	0.99065
634.2	0.99099
634.4	0.99113
634.6	0.99075
634.8	0.99056
635.0	0.99058
635.2	0.99115
635.4	0.99017
635.6	0.99094
635.8	0.99121
636.0	0.99066
636.2	0.99089
636.4	0.99131
636.6	0.99175
636.8	0.99198
637.0	0.9918
637.2	0.99243
637.4	0.99316
637.6	0.99273
637.8	0.9929
638.0	0.99348
638.2	0.99349
638.4	0.99376
638.6	0.99368
638.8	0.99396
639.0	0.99381
639.2	0.99363
639.4	0.99381
639.6	0.99379
639.8	0.99366
640.0	0.99308
640.2	0.99345
640.4	0.99334
640.6	0.99312
640.8	0.99275
641.0	0.99302
641.2	0.99284
641.4	0.99215
641.6	0.99159
641.8	0.99162
642.0	0.99186
642.2	0.99134
642.4	0.99102
642.6	0.99145
642.8	0.99087
643.0	0.99106
643.2	0.99095
643.4	0.99088
643.6	0.99091
643.8	0.99065
644.0	0.99136
644.2	0.99119
644.4	0.99112
644.6	0.99154
644.8	0.99208
645.0	0.99223
645.2	0.99193
645.4	0.99213
645.6	0.99284
645.8	0.99297
646.0	0.99281
646.2	0.9932
646.4	0.99288
646.6	0.99377
646.8	0.99377
647.0	0.9944
647.2	0.9942
647.4	0.99413
647.6	0.99406
647.8	0.99387
648.0	0.99445
648.2	0.99442
648.4	0.99425
648.6	0.99407
648.8	0.9943
649.0	0.99419
649.2	0.99335
649.4	0.99357
649.6	0.99342
649.8	0.99295
650.0	0.99287
650.2	0.99281
650.4	0.99236
650.6	0.99275
650.8	0.99221
651.0	0.99157
651.2	0.99166
651.4	0.99149
651.6	0.99117
651.8	0.99125
652.0	0.99119
652.2	0.99079
652.4	0.99101
652.6	0.99081
652.8	0.99076
653.0	0.99099
653.2	0.99058
653.4	0.991
653.6	0.99108
653.8	0.99102
654.0	0.99118
654.2	0.99173
654.4	0.99174
654.6	0.99194
654.8	0.99285
655.0	0.99263
655.2	0.99249
655.4	0.99269
655.6	0.99262
655.8	0.99292
656.0	0.99346
656.2	0.99381
656.4	0.99385
656.6	0.99423
656.8	0.99416
657.0	0.99469
657.2	0.9948
657.4	0.99522
657.6	0.99482
657.8	0.99489
658.0	0.99473
658.2	0.99509
658.4	0.99515
658.6	0.99436
658.8	0.9943
659.0	0.99431
659.2	0.99432
659.4	0.99416
659.6	0.99377
659.8	0.99367
660.0	0.99325
660.2	0.99314
660.4	0.99293
660.6	0.9928
660.8	0.99229
661.0	0.99206
661.2	0.99203
661.4	0.99149
661.6	0.99134
661.8	0.99105
662.0	0.99106
662.2	0.991
662.4	0.99074
662.6	0.99051
662.8	0.99036
663.0	0.99048
663.2	0.99056
663.4	0.99007
663.6	0.99001
663.8	0.99075
664.0	0.99066
664.2	0.99072
664.4	0.99071
664.6	0.99104
664.8	0.99119
665.0	0.99118
665.2	0.99163
665.4	0.992
665.6	0.99235
665.8	0.99215
666.0	0.99248
666.2	0.9928
666.4	0.99323
666.6	0.99304
666.8	0.99365
667.0	0.99396
667.2	0.99396
667.4	0.99368
667.6	0.99397
667.8	0.99387
668.0	0.99419
668.2	0.99443
668.4	0.99433
668.6	0.99453
668.8	0.99469
669.0	0.99471
669.2	0.99472
669.4	0.99446
669.6	0.99459
669.8	0.99412
670.0	0.99438
670.2	0.99394
670.4	0.99361
670.6	0.99347
670.8	0.9935
671.0	0.99296
671.2	0.99312
671.4	0.99295
671.6	0.99303
671.8	0.99246
672.0	0.99146
672.2	0.99203
672.4	0.99174
672.6	0.99148
672.8	0.99139
673.0	0.99093
673.2	0.98986
673.4	0.9906
673.6	0.99031
673.8	0.99031
674.0	0.98951
674.2	0.99029
674.4	0.98974
674.6	0.99
674.8	0.99038
675.0	0.99049
675.2	0.98962
675.4	0.99024
675.6	0.99024
675.8	0.99102
676.0	0.9912
676.2	0.99071
676.4	0.99142
676.6	0.99185
676.8	0.99137
677.0	0.99219
677.2	0.99214
677.4	0.99273
677.6	0.99228
677.8	0.99244
678.0	0.99304
678.2	0.99348
678.4	0.99313
678.6	0.99356
678.8	0.99413
679.0	0.99402
679.2	0.99403
679.4	0.99401
679.6	0.99467
679.8	0.99469
680.0	0.99417
680.2	0.99427
680.4	0.99452
680.6	0.99459
680.8	0.99423
681.0	0.99407
681.2	0.9944
681.4	0.99448
681.6	0.99389
681.8	0.99345
682.0	0.99367
682.2	0.99341
682.4	0.99298
682.6	0.99351
682.8	0.99232
683.0	0.99197
683.2	0.99169
683.4	0.99184
683.6	0.99171
683.8	0.99122
684.0	0.9903
684.2	0.99126
684.4	0.99052
684.6	0.99025
684.8	0.99059
685.0	0.99046
685.2	0.99008
685.4	0.98965
685.6	0.98893
685.8	0.98954
686.0	0.98911
686.2	0.98965
686.4	0.98917
686.6	0.98875
686.8	0.98935
687.0	0.9892
687.2	0.98924
687.4	0.98896
687.6	0.98885
687.8	0.98941
688.0	0.99043
688.2	0.98985
688.4	0.98955
688.6	0.98986
688.8	0.991
689.0	0.99127
689.2	0.99071
689.4	0.99121
689.6	0.99203
689.8	0.99213
690.0	0.99172
690.2	0.99195
690.4	0.99301
690.6	0.99378
690.8	0.99334
691.0	0.99369
691.2	0.99322
691.4	0.99354
691.6	0.9937
691.8	0.99412
692.0	0.99416
692.2	0.99432
692.4	0.99464
692.6	0.9941
692.8	0.99432
693.0	0.9939
693.2	0.99508
693.4	0.99515
693.6	0.99433
693.8	0.99474
694.0	0.99473
694.2	0.99486
694.4	0.99444
694.6	0.99441
694.8	0.99508
695.0	0.99443
695.2	0.9939
695.4	0.99355
695.6	0.99359
695.8	0.99253
696.0	0.99319
696.2	0.99265
696.4	0.99275
696.6	0.99259
696.8	0.9923
697.0	0.99201
697.2	0.99159
697.4	0.99177
697.6	0.99141
697.8	0.99108
698.0	0.99166
698.2	0.99131
698.4	0.99066
698.6	0.99062
698.8	0.99034
699.0	0.9901
699.2	0.99052
699.4	0.9904
699.6	0.9904
699.8	0.98987
700.0	0.98937
700.2	0.99016
700.4	0.99007
700.6	0.98995
700.8	0.99053
701.0	0.98979
701.2	0.99021
701.4	0.99118
701.6	0.99101
701.8	0.99073
702.0	0.99123
702.2	0.99173
702.4	0.991
702.6	0.99177
702.8	0.99146
703.0	0.99208
703.2	0.99267
703.4	0.99294
703.6	0.99346
703.8	0.99276
704.0	0.99386
704.2	0.99386
704.4	0.99375
704.6	0.99382
704.8	0.99326
705.0	0.99373
705.2	0.99373
705.4	0.99432
705.6	0.99489
705.8	0.99484
706.0	0.99495
706.2	0.99512
706.4	0.9952
706.6	0.99487
706.8	0.99488
707.0	0.99494
707.2	0.99564
707.4	0.99477
707.6	0.99496
707.8	0.99526
708.0	0.99428
708.2	0.99468
708.4	0.99425
708.6	0.99459
708.8	0.99454
709.0	0.99427
709.2	0.994
709.4	0.99424
709.6	0.99422
709.8	0.9936
710.0	0.99316
710.2	0.99277
710.4	0.99305
710.6	0.99319
710.8	0.9925
711.0	0.99271
711.2	0.99242
711.4	0.99207
711.6	0.99238
711.8	0.99163
712.0	0.99246
712.2	0.99227
712.4	0.99176
712.6	0.99148
712.8	0.99155
713.0	0.992
713.2	0.99132
713.4	0.99157
713.6	0.99143
713.8	0.99153
714.0	0.99237
714.2	0.99222
714.4	0.99186
714.6	0.99195
714.8	0.99224
715.0	0.99221
715.2	0.99184
715.4	0.99207
715.6	0.99238
715.8	0.99314
716.0	0.99251
716.2	0.99294
716.4	0.9939
716.6	0.99257
716.8	0.99382
717.0	0.99356
717.2	0.99348
717.4	0.994
717.6	0.99409
717.8	0.995
718.0	0.9939
718.2	0.99456
718.4	0.99435
718.6	0.99515
718.8	0.99476
719.0	0.99577
719.2	0.99563
719.4	0.99555
719.6	0.99616
719.8	0.99575
720.0	0.99624
720.2	0.99502
720.4	0.9958
720.6	0.99555
720.8	0.99561
721.0	0.99589
721.2	0.9959
721.4	0.99566
721.6	0.996
721.8	0.99573
722.0	0.99543
722.2	0.99552
722.4	0.99513
722.6	0.99531
722.8	0.9947
723.0	0.99504
723.2	0.99476
723.4	0.99447
723.6	0.99422
723.8	0.99441
724.0	0.99455
724.2	0.99363
724.4	0.99372
724.6	0.99331
724.8	0.99372
725.0	0.99275
725.2	0.99368
725.4	0.99252
725.6	0.99226
725.8	0.99313
726.0	0.99326
726.2	0.99228
726.4	0.99281
726.6	0.99301
726.8	0.99239
727.0	0.99214
727.2	0.99186
727.4	0.99279
727.6	0.99219
727.8	0.99204
728.0	0.99202
728.2	0.99222
728.4	0.99216
728.6	0.99162
728.8	0.9921
729.0	0.99189
729.2	0.99218
729.4	0.99255
729.6	0.99282
729.8	0.99219
730.0	0.99253
730.2	0.99284
730.4	0.99336
730.6	0.99361
730.8	0.99316
731.0	0.99373
731.2	0.99356
731.4	0.99342
731.6	0.99335
731.8	0.995
732.0	0.99432
732.2	0.9935
732.4	0.99448
732.6	0.99461
732.8	0.99474
733.0	0.99452
733.2	0.99493
733.4	0.99485
733.6	0.99486
733.8	0.99565
734.0	0.99495
734.2	0.99563
734.4	0.99581
734.6	0.99512
734.8	0.99545
735.0	0.99585
735.2	0.99622
735.4	0.99577
735.6	0.99544
735.8	0.99609
736.0	0.99544
736.2	0.99498
736.4	0.99497
736.6	0.9953
736.8	0.99536
737.0	0.99474
737.2	0.99507
737.4	0.99535
737.6	0.99514
737.8	0.99516
738.0	0.99517
738.2	0.99496
738.4	0.99466
738.6	0.99465
738.8	0.99415
739.0	0.99449
739.2	0.99471
739.4	0.99395
739.6	0.99346
739.8	0.99323
740.0	0.99395
740.2	0.99386
740.4	0.99392
740.6	0.99303
740.8	0.99332
741.0	0.99376
741.2	0.99137
741.4	0.99288
741.6	0.99284
741.8	0.99307
742.0	0.99156
742.2	0.99091
742.4	0.9921
742.6	0.99306
742.8	0.99208
743.0	0.99214
743.2	0.99186
743.4	0.99187
743.6	0.99173
743.8	0.99218
744.0	0.99226
744.2	0.9912
744.4	0.99179
744.6	0.99186
744.8	0.99284
745.0	0.99215
745.2	0.99103
745.4	0.99189
745.6	0.99277
745.8	0.99174
746.0	0.9924
746.2	0.99248
746.4	0.99286
746.6	0.99299
746.8	0.99311
747.0	0.99285
747.2	0.99354
747.4	0.9931
747.6	0.99317
747.8	0.99335
748.0	0.99401
748.2	0.99473
748.4	0.99425
748.6	0.99402
748.8	0.99397
749.0	0.99503
749.2	0.994
749.4	0.99522
749.6	0.99556
749.8	0.99494
750.0	0.99506
750.2	0.99515
750.4	0.99511
750.6	0.99468
750.8	0.99576
751.0	0.99597
751.2	0.9958
751.4	0.99584
751.6	0.99594
751.8	0.99533
752.0	0.99556
752.2	0.99577
752.4	0.99577
752.6	0.99611
752.8	0.99444
753.0	0.9959
753.2	0.99548
753.4	0.99524
753.6	0.99551
753.8	0.9955
754.0	0.9957
754.2	0.99494
754.4	0.99506
754.6	0.99495
754.8	0.99421
755.0	0.99506
755.2	0.99439
755.4	0.99384
755.6	0.99339
755.8	0.99395
756.0	0.9952
756.2	0.99313
756.4	0.99353
756.6	0.9935
756.8	0.99346
757.0	0.99252
757.2	0.99266
757.4	0.99294
757.6	0.99263
757.8	0.99291
758.0	0.99294
758.2	0.9933
758.4	0.99236
758.6	0.99162
758.8	0.99193
759.0	0.99176
759.2	0.99229
759.4	0.99265
759.6	0.99253
759.8	0.99268
760.0	0.99278
760.2	0.99155
760.4	0.99143
760.6	0.99238
760.8	0.99211
761.0	0.99175
761.2	0.99146
761.4	0.99223
761.6	0.9921
761.8	0.99261
762.0	0.99232
762.2	0.99266
762.4	0.99087
762.6	0.99299
762.8	0.99232
763.0	0.99288
763.2	0.99166
763.4	0.99369
763.6	0.99077
763.8	0.99365
764.0	0.99159
764.2	0.99424
764.4	0.99231
764.6	0.99239
764.8	0.99352
765.0	0.99202
765.2	0.99399
765.4	0.99328
765.6	0.99406
765.8	0.99402
766.0	0.99265
766.2	0.99445
766.4	0.9935
766.6	0.99346
766.8	0.99452
767.0	0.99339
767.2	0.99289
767.4	0.99378
767.6	0.99374
767.8	0.99383
768.0	0.99493
768.2	0.99372
768.4	0.99368
768.6	0.99501
768.8	0.99452
769.0	0.99421
769.2	0.99337
769.4	0.99387
769.6	0.99391
769.8	0.99372
770.0	0.99194
770.2	0.99329
770.4	0.9945
770.6	0.99335
770.8	0.99365
771.0	0.99319
771.2	0.99276
771.4	0.99294
771.6	0.99331
771.8	0.99345
772.0	0.99254
772.2	0.99194
772.4	0.99152
772.6	0.99284
772.8	0.99292
773.0	0.99164
773.2	0.99174
773.4	0.99225
773.6	0.99156
773.8	0.99094
774.0	0.99183
774.2	0.99163
774.4	0.99139
774.6	0.99139
774.8	0.99101
775.0	0.99115
775.2	0.99197
775.4	0.99149
775.6	0.99121
775.8	0.99114
776.0	0.99118
776.2	0.99147
776.4	0.99095
776.6	0.99101
776.8	0.99151
777.0	0.99083
777.2	0.99062
777.4	0.99175
777.6	0.9907
777.8	0.99081
778.0	0.99101
778.2	0.99106
778.4	0.9916
778.6	0.99102
778.8	0.99204
779.0	0.99235
779.2	0.99121
779.4	0.99199
779.6	0.99218
779.8	0.99171
780.0	0.99137
780.2	0.99144
780.4	0.99215
780.6	0.99207
780.8	0.99198
781.0	0.9924
781.2	0.99197
781.4	0.99279
781.6	0.99308
781.8	0.99335
782.0	0.99277
782.2	0.99274
782.4	0.99354
782.6	0.99431
782.8	0.99341
783.0	0.99358
783.2	0.99369
783.4	0.99357
783.6	0.99307
783.8	0.99371
784.0	0.99461
784.2	0.99329
784.4	0.99378
784.6	0.99424
784.8	0.99457
785.0	0.99336
785.2	0.99414
785.4	0.9944
785.6	0.99323
785.8	0.99356
786.0	0.99444
786.2	0.99519
786.4	0.99398
786.6	0.99409
786.8	0.99429
787.0	0.99333
787.2	0.99427
787.4	0.99369
787.6	0.99406
787.8	0.99256
788.0	0.99391
788.2	0.9929
788.4	0.99331
788.6	0.99324
788.8	0.99302
789.0	0.99318
789.2	0.99311
789.4	0.99302
789.6	0.99234
789.8	0.99213
790.0	0.99211
790.2	0.99264
790.4	0.99337
790.6	0.99138
790.8	0.99101
791.0	0.9917
791.2	0.99244
791.4	0.9919
791.6	0.9913
791.8	0.99139
792.0	0.99119
792.2	0.9916
792.4	0.9911
792.6	0.99015
792.8	0.99138
793.0	0.99081
793.2	0.99106
793.4	0.99097
793.6	0.99131
793.8	0.99073
794.0	0.98939
794.2	0.99045
794.4	0.98994
794.6	0.98956
794.8	0.99073
795.0	0.98966
795.2	0.98998
795.4	0.99009
795.6	0.98976
795.8	0.98976
796.0	0.99069
796.2	0.98964
796.4	0.98957
796.6	0.99007
796.8	0.99042
797.0	0.99055
797.2	0.99065
797.4	0.9901
797.6	0.98965
797.8	0.98997
798.0	0.99027
798.2	0.99031
798.4	0.99006
798.6	0.99101
798.8	0.9903
799.0	0.99022
799.2	0.99012
799.4	0.99035
799.6	0.99043
799.8	0.99044
800.0	0.99093
800.2	0.99082
800.4	0.99085
800.6	0.99095
800.8	0.99148
801.0	0.9912
801.2	0.99089
801.4	0.99105
801.6	0.99137
801.8	0.99122
802.0	0.99117
802.2	0.99156
802.4	0.99135
802.6	0.99181
802.8	0.99205
803.0	0.99346
803.2	0.99428
803.4	0.99433
803.6	0.99407
803.8	0.99388
804.0	0.9941
804.2	0.99394
804.4	0.99423
804.6	0.99412
804.8	0.99429
805.0	0.99399
805.2	0.99397
805.4	0.99457
805.6	0.99426
805.8	0.99421
806.0	0.9938
806.2	0.99376
806.4	0.99352
806.6	0.99375
806.8	0.99348
807.0	0.99374
807.2	0.99355
807.4	0.99363
807.6	0.9933
807.8	0.99314
808.0	0.99355
808.2	0.99348
808.4	0.99307
808.6	0.99327
808.8	0.99312
809.0	0.99317
809.2	0.99279
809.4	0.99292
809.6	0.99301
809.8	0.9927
810.0	0.99276
810.2	0.99221
810.4	0.99215
810.6	0.99228
810.8	0.99211
811.0	0.99229
811.2	0.99272
811.4	0.99225
811.6	0.99267
811.8	0.99211
812.0	0.99229
812.2	0.99159
812.4	0.99201
812.6	0.99222
812.8	0.99221
813.0	0.99207
813.2	0.99202
813.4	0.99206
813.6	0.9919
813.8	0.99182
814.0	0.99195
814.2	0.99193
814.4	0.99219
814.6	0.9927
814.8	0.99211
815.0	0.99209
815.2	0.99259
815.4	0.99268
815.6	0.9927
815.8	0.99268
816.0	0.99282
816.2	0.99284
816.4	0.99283
816.6	0.99285
816.8	0.99334
817.0	0.9932
817.2	0.99323
817.4	0.99328
817.6	0.99395
817.8	0.99364
818.0	0.99393
818.2	0.9942
818.4	0.99388
818.6	0.9939
818.8	0.99465
819.0	0.99438
819.2	0.9945
819.4	0.99462
819.6	0.99528
819.8	0.99458
820.0	0.99495
820.2	0.99505
820.4	0.99496
820.6	0.99532
820.8	0.99513
821.0	0.99532
821.2	0.99545
821.4	0.99553
821.6	0.99604
821.8	0.99578
822.0	0.99592
822.2	0.99565
822.4	0.99567
822.6	0.99615
822.8	0.99554
823.0	0.9958
823.2	0.99539
823.4	0.99575
823.6	0.99633
823.8	0.99566
824.0	0.99557
824.2	0.99535
824.4	0.99548
824.6	0.99528
824.8	0.99571
825.0	0.99557
825.2	0.99557
825.4	0.99543
825.6	0.99567
825.8	0.9959
826.0	0.99545
826.2	0.99497
826.4	0.99513
826.6	0.99536
826.8	0.9949
827.0	0.99493
827.2	0.99447
827.4	0.99425
827.6	0.99455
827.8	0.99474
828.0	0.99461
828.2	0.99424
828.4	0.99421
828.6	0.99433
828.8	0.99373
829.0	0.99336
829.2	0.99372
829.4	0.9936
829.6	0.99334
829.8	0.99319
830.0	0.99301
830.2	0.9932
830.4	0.99324
830.6	0.99295
830.8	0.99252
831.0	0.99273
831.2	0.9927
831.4	0.99248
831.6	0.99234
831.8	0.99217
832.0	0.99213
832.2	0.99167
832.4	0.9921
832.6	0.99177
832.8	0.99179
833.0	0.99226
833.2	0.99157
833.4	0.99174
833.6	0.9917
833.8	0.99199
834.0	0.99104
834.2	0.99168
834.4	0.99137
834.6	0.99152
834.8	0.99162
835.0	0.99141
835.2	0.99153
835.4	0.99171
835.6	0.99126
835.8	0.99133
836.0	0.99162
836.2	0.99146
836.4	0.99161
836.6	0.9916
836.8	0.99172
837.0	0.99106
837.2	0.99144
837.4	0.99153
837.6	0.9917
837.8	0.99177
838.0	0.99141
838.2	0.99162
838.4	0.99189
838.6	0.99153
838.8	0.99207
839.0	0.992
839.2	0.99202
839.4	0.99222
839.6	0.99208
839.8	0.99244
840.0	0.99224
840.2	0.99222
840.4	0.99222
840.6	0.99237
840.8	0.99205
841.0	0.99255
841.2	0.99259
841.4	0.99241
841.6	0.99288
841.8	0.99241
842.0	0.99247
842.2	0.99277
842.4	0.99276
842.6	0.99256
842.8	0.99285
843.0	0.99278
843.2	0.99232
843.4	0.99281
843.6	0.99296
843.8	0.99284
844.0	0.99242
844.2	0.99232
844.4	0.99266
844.6	0.99266
844.8	0.99249
845.0	0.99271
845.2	0.99231
845.4	0.99196
845.6	0.99273
845.8	0.99254
846.0	0.99245
846.2	0.99269
846.4	0.99222
846.6	0.99237
846.8	0.99259
847.0	0.99193
847.2	0.99237
847.4	0.99177
847.6	0.99248
847.8	0.99195
848.0	0.99208
848.2	0.9921
848.4	0.99192
848.6	0.99167
848.8	0.99149
849.0	0.99161
849.2	0.99159
849.4	0.99181
849.6	0.99209
849.8	0.99214
850.0	0.99133
850.2	0.99197
850.4	0.99142
850.6	0.99148
850.8	0.99137
851.0	0.99166
851.2	0.99168
851.4	0.99172
851.6	0.99147
851.8	0.99209
852.0	0.99172
852.2	0.99104
852.4	0.99139
852.6	0.99199
852.8	0.99216
853.0	0.99187
853.2	0.99173
853.4	0.99169
853.6	0.99202
853.8	0.99229
854.0	0.99163
854.2	0.9917
854.4	0.99184
854.6	0.99227
854.8	0.99238
855.0	0.99221
855.2	0.9923
855.4	0.99211
855.6	0.99256
855.8	0.99259
856.0	0.99251
856.2	0.99232
856.4	0.99269
856.6	0.99258
856.8	0.99294
857.0	0.99314
857.2	0.99302
857.4	0.99305
857.6	0.99305
857.8	0.99315
858.0	0.99329
858.2	0.99331
858.4	0.99345
858.6	0.99355
858.8	0.99364
859.0	0.99362
859.2	0.99384
859.4	0.99368
859.6	0.99389
859.8	0.99429
860.0	0.99413
860.2	0.99406
860.4	0.99396
860.6	0.99397
860.8	0.99403
861.0	0.99431
861.2	0.99489
861.4	0.99442
861.6	0.99413
861.8	0.99403
862.0	0.99447
862.2	0.99449
862.4	0.99448
862.6	0.99474
862.8	0.99431
863.0	0.99431
863.2	0.99442
863.4	0.99385
863.6	0.99414
863.8	0.99439
864.0	0.99455
864.2	0.99407
864.4	0.99398
864.6	0.99423
864.8	0.99391
865.0	0.99409
865.2	0.99418
865.4	0.99401
865.6	0.99396
865.8	0.99356
866.0	0.9938
866.2	0.99332
866.4	0.99337
866.6	0.9933
866.8	0.99302
867.0	0.99305
867.2	0.99293
867.4	0.99281
867.6	0.99301
867.8	0.99258
868.0	0.9939
868.2	0.99425
868.4	0.99404
868.6	0.99372
868.8	0.99416
869.0	0.99331
869.2	0.99369
869.4	0.99369
869.6	0.99374
869.8	0.99338
870.0	0.993
870.2	0.99299
870.4	0.99303
870.6	0.99315
870.8	0.99256
871.0	0.99311
871.2	0.99286
871.4	0.99271
871.6	0.99239
871.8	0.99282
872.0	0.99273
872.2	0.99226
872.4	0.99266
872.6	0.99247
872.8	0.99256
873.0	0.99218
873.2	0.9923
873.4	0.99202
873.6	0.99216
873.8	0.99239
874.0	0.99234
874.2	0.99236
874.4	0.99242
874.6	0.9922
874.8	0.99267
875.0	0.99226
875.2	0.99229
875.4	0.99224
875.6	0.99272
875.8	0.99246
876.0	0.99245
876.2	0.99244
876.4	0.99251
876.6	0.99298
876.8	0.99294
877.0	0.99291
877.2	0.99309
877.4	0.99281
877.6	0.99324
877.8	0.9932
878.0	0.99357
878.2	0.99381
878.4	0.99357
878.6	0.99363
878.8	0.99392
879.0	0.99379
879.2	0.99412
879.4	0.99434
879.6	0.99408
879.8	0.99436
880.0	0.99452
880.2	0.99441
880.4	0.99473
880.6	0.99476
880.8	0.995
881.0	0.995
881.2	0.99496
881.4	0.9949
881.6	0.99542
881.8	0.99526
882.0	0.99562
882.2	0.99552
882.4	0.99596
882.6	0.99559
882.8	0.99595
883.0	0.99571
883.2	0.99583
883.4	0.99566
883.6	0.99592
883.8	0.99606
884.0	0.99622
884.2	0.99632
884.4	0.9965
884.6	0.99613
884.8	0.99597
885.0	0.99609
885.2	0.99607
885.4	0.99607
885.6	0.99631
885.8	0.99655
886.0	0.99593
886.2	0.99615
886.4	0.99612
886.6	0.996
886.8	0.99598
887.0	0.99567
887.2	0.9959
887.4	0.99581
887.6	0.99575
887.8	0.99555
888.0	0.99563
888.2	0.99554
888.4	0.99533
888.6	0.99516
888.8	0.99522
889.0	0.99507
889.2	0.99497
889.4	0.99479
889.6	0.99485
889.8	0.99459
890.0	0.99482
890.2	0.99487
890.4	0.99472
890.6	0.9943
890.8	0.99404
891.0	0.99406
891.2	0.99407
891.4	0.99405
891.6	0.99368
891.8	0.99374
892.0	0.99357
892.2	0.99337
892.4	0.99334
892.6	0.99335
892.8	0.99341
893.0	0.99327
893.2	0.99326
893.4	0.99318
893.6	0.99334
893.8	0.9929
894.0	0.99276
894.2	0.99298
894.4	0.99344
894.6	0.993
894.8	0.99268
895.0	0.9929
895.2	0.99295
895.4	0.99291
895.6	0.9931
895.8	0.99306
896.0	0.99309
896.2	0.9929
896.4	0.99303
896.6	0.99318
896.8	0.99338
897.0	0.99349
897.2	0.99344
897.4	0.99352
897.6	0.99347
897.8	0.99363
898.0	0.99408
898.2	0.9941
898.4	0.9943
898.6	0.99438
898.8	0.9945
899.0	0.99404
899.2	0.99445
899.4	0.99474
899.6	0.99496
899.8	0.995
900.0	0.99494
900.2	0.995
900.4	0.99571
900.6	0.99586
900.8	0.9956
901.0	0.99592
901.2	0.9958
901.4	0.99619
901.6	0.99611
901.8	0.99631
902.0	0.99632
902.2	0.99655
902.4	0.99672
902.6	0.99693
902.8	0.99667
903.0	0.99713
903.2	0.9975
903.4	0.99721
903.6	0.99755
903.8	0.99734
904.0	0.99737
904.2	0.99729
904.4	0.9974
904.6	0.9976
904.8	0.99727
905.0	0.99755
905.2	0.99694
905.4	0.99691
905.6	0.9971
905.8	0.99691
906.0	0.99659
906.2	0.99665
906.4	0.99577
906.6	0.99613
906.8	0.99571
907.0	0.99556
907.2	0.99525
907.4	0.99517
907.6	0.99481
907.8	0.99466
908.0	0.99404
908.2	0.99396
908.4	0.99348
908.6	0.99306
908.8	0.99253
909.0	0.9918
909.2	0.99118
909.4	0.99102
909.6	0.99069
909.8	0.99013
910.0	0.98941
