Typical Measured Spectrum of Semrock FF02-650/100 Optical Filter	
For wavelengths between 320 and 1120 nm, values near or below 3e-7 (Optical Density 6.5) are measurement noise limited.
For wavelengths < 320 nm and > 1120 nm, values near or below 3e-6 (Optical Density 5.5) are measurement noise limited. 
Data format:  Wavelength (nm) <tab> Transmission (0 to 1)
371.0	4.7373e-06
371.2	4.3834e-06
371.4	4.056e-06
371.6	3.753e-06
371.8	3.4726e-06
372.0	3.2132e-06
372.2	2.9732e-06
372.4	2.7511e-06
372.6	2.5456e-06
372.8	2.3554e-06
373.0	2.1795e-06
373.2	2.0166e-06
373.4	1.866e-06
373.6	1.7266e-06
373.8	1.5976e-06
374.0	1.4783e-06
374.2	1.3679e-06
374.4	1.2657e-06
374.6	1.1711e-06
374.8	1.0836e-06
375.0	1.0027e-06
375.2	1.036e-06
375.4	1.095e-06
375.6	1.1572e-06
375.8	1.2231e-06
376.0	1.2926e-06
376.2	1.3662e-06
376.4	1.4439e-06
376.6	1.526e-06
376.8	1.6128e-06
377.0	1.7045e-06
377.2	1.8015e-06
377.4	1.9039e-06
377.6	2.0122e-06
377.8	2.1267e-06
378.0	2.2476e-06
378.2	2.3755e-06
378.4	2.5106e-06
378.6	2.6534e-06
378.8	2.8043e-06
379.0	2.9638e-06
379.2	3.1324e-06
379.4	3.3105e-06
379.6	3.4988e-06
379.8	3.6978e-06
380.0	3.9081e-06
380.2	4.0143e-06
380.4	4.0977e-06
380.6	4.1828e-06
380.8	4.2696e-06
381.0	4.3583e-06
381.2	4.4488e-06
381.4	4.5412e-06
381.6	4.6355e-06
381.8	4.7317e-06
382.0	4.83e-06
382.2	4.9303e-06
382.4	5.0327e-06
382.6	5.1372e-06
382.8	5.2438e-06
383.0	5.3527e-06
383.2	5.4639e-06
383.4	5.5773e-06
383.6	5.6932e-06
383.8	5.8114e-06
384.0	5.932e-06
384.2	6.0552e-06
384.4	5.8356e-06
384.6	5.4805e-06
384.8	5.147e-06
385.0	4.8338e-06
385.2	4.5396e-06
385.4	4.2634e-06
385.6	4.0039e-06
385.8	3.7603e-06
386.0	3.5315e-06
386.2	3.3166e-06
386.4	3.1147e-06
386.6	2.9252e-06
386.8	2.7472e-06
387.0	2.58e-06
387.2	2.423e-06
387.4	2.2756e-06
387.6	2.1371e-06
387.8	2.0071e-06
388.0	1.8864e-06
388.2	1.773e-06
388.4	1.6665e-06
388.6	1.5664e-06
388.8	1.4722e-06
389.0	1.3838e-06
389.2	1.3006e-06
389.4	1.2225e-06
389.6	1.149e-06
389.8	1.08e-06
390.0	1.0151e-06
390.2	9.5411e-07
390.4	8.9679e-07
390.6	8.5923e-07
390.8	1.0431e-06
391.0	1.2662e-06
391.2	1.5372e-06
391.4	1.8661e-06
391.6	2.2653e-06
391.8	2.75e-06
392.0	3.3384e-06
392.2	4.0526e-06
392.4	4.9197e-06
392.6	5.9724e-06
392.8	7.2502e-06
393.0	8.8014e-06
393.2	1.0685e-05
393.4	1.2971e-05
393.6	1.2972e-05
393.8	1.296e-05
394.0	1.2949e-05
394.2	1.2938e-05
394.4	1.2926e-05
394.6	1.2915e-05
394.8	1.2904e-05
395.0	1.2892e-05
395.2	1.2881e-05
395.4	1.287e-05
395.6	1.2858e-05
395.8	1.2847e-05
396.0	1.2836e-05
396.2	1.2824e-05
396.4	1.2813e-05
396.6	1.2802e-05
396.8	1.2791e-05
397.0	1.2779e-05
397.2	1.2768e-05
397.4	1.2757e-05
397.6	1.2746e-05
397.8	1.2735e-05
398.0	1.2723e-05
398.2	1.2712e-05
398.4	1.2701e-05
398.6	1.1028e-05
398.8	9.1025e-06
399.0	7.5132e-06
399.2	6.2014e-06
399.4	5.1187e-06
399.6	4.225e-06
399.8	3.4873e-06
400.0	2.8785e-06
400.2	2.3759e-06
400.4	1.9611e-06
400.6	1.6187e-06
400.8	1.3361e-06
401.0	1.1028e-06
401.2	9.1025e-07
401.4	7.5133e-07
401.6	6.2015e-07
401.8	5.1187e-07
402.0	4.225e-07
402.2	3.4874e-07
402.4	2.8785e-07
402.6	2.3759e-07
402.8	1.9611e-07
403.0	1.6187e-07
403.2	1.3361e-07
403.4	1.1028e-07
403.6	1.0296e-07
403.8	1.0927e-07
404.0	1.1596e-07
404.2	1.2307e-07
404.4	1.3061e-07
404.6	1.3861e-07
404.8	1.471e-07
405.0	1.5611e-07
405.2	1.6568e-07
405.4	1.7583e-07
405.6	1.866e-07
405.8	1.9804e-07
406.0	2.1017e-07
406.2	2.2305e-07
406.4	2.3672e-07
406.6	2.5122e-07
406.8	2.6661e-07
407.0	2.8295e-07
407.2	3.0029e-07
407.4	3.1869e-07
407.6	3.3821e-07
407.8	3.6068e-07
408.0	3.9015e-07
408.2	4.2202e-07
408.4	4.565e-07
408.6	4.9379e-07
408.8	5.3413e-07
409.0	5.7777e-07
409.2	6.2497e-07
409.4	6.7602e-07
409.6	7.3125e-07
409.8	7.9099e-07
410.0	8.5561e-07
410.2	9.2551e-07
410.4	1.0011e-06
410.6	1.0829e-06
410.8	1.1714e-06
411.0	1.2671e-06
411.2	1.3706e-06
411.4	1.4825e-06
411.6	1.3651e-06
411.8	1.1788e-06
412.0	1.018e-06
412.2	8.7904e-07
412.4	7.5908e-07
412.6	6.5549e-07
412.8	5.6604e-07
413.0	4.888e-07
413.2	4.2209e-07
413.4	3.6449e-07
413.6	3.1475e-07
413.8	2.718e-07
414.0	2.3471e-07
414.2	2.0268e-07
414.4	1.7502e-07
414.6	1.5114e-07
414.8	1.3051e-07
415.0	1.127e-07
415.2	1.0e-07
415.4	1.0e-07
415.6	1.0e-07
415.8	1.0e-07
416.0	1.0e-07
416.2	1.0e-07
416.4	1.0e-07
416.6	1.0e-07
416.8	1.0e-07
417.0	1.0e-07
417.2	1.0e-07
417.4	1.0e-07
417.6	1.0e-07
417.8	1.0e-07
418.0	1.0e-07
418.2	1.0e-07
418.4	1.0e-07
418.6	1.0e-07
418.8	1.0e-07
419.0	1.0e-07
419.2	1.0e-07
419.4	1.0e-07
419.6	1.0e-07
419.8	1.0e-07
420.0	1.0e-07
420.2	1.0e-07
420.4	1.0e-07
420.6	1.0e-07
420.8	1.0e-07
421.0	1.0e-07
421.2	1.0e-07
421.4	1.0e-07
421.6	1.0e-07
421.8	1.0e-07
422.0	1.0e-07
422.2	1.0e-07
422.4	1.0e-07
422.6	1.0e-07
422.8	1.0e-07
423.0	1.0e-07
423.2	1.0e-07
423.4	1.0e-07
423.6	1.0e-07
423.8	1.0e-07
424.0	1.0e-07
424.2	1.0e-07
424.4	1.0e-07
424.6	1.0e-07
424.8	1.0e-07
425.0	1.0e-07
425.2	1.0e-07
425.4	1.0e-07
425.6	1.0e-07
425.8	1.0e-07
426.0	1.0e-07
426.2	1.0e-07
426.4	1.0e-07
426.6	1.0e-07
426.8	1.0e-07
427.0	1.0e-07
427.2	1.0e-07
427.4	1.0e-07
427.6	1.0e-07
427.8	1.0e-07
428.0	1.0e-07
428.2	1.0e-07
428.4	1.0e-07
428.6	1.0e-07
428.8	1.0e-07
429.0	1.0e-07
429.2	1.0e-07
429.4	1.0e-07
429.6	1.0e-07
429.8	1.0e-07
430.0	1.0e-07
430.2	1.0e-07
430.4	1.0e-07
430.6	1.0e-07
430.8	1.0e-07
431.0	1.0e-07
431.2	1.0e-07
431.4	1.0e-07
431.6	1.0e-07
431.8	1.0e-07
432.0	1.0e-07
432.2	1.0e-07
432.4	1.0e-07
432.6	1.0e-07
432.8	1.0e-07
433.0	1.0e-07
433.2	1.0e-07
433.4	1.0e-07
433.6	1.0e-07
433.8	1.0e-07
434.0	1.0e-07
434.2	1.0e-07
434.4	1.0e-07
434.6	1.0e-07
434.8	1.0e-07
435.0	1.0e-07
435.2	1.0e-07
435.4	1.0e-07
435.6	1.0e-07
435.8	1.0e-07
436.0	1.0e-07
436.2	1.0e-07
436.4	1.0e-07
436.6	1.0e-07
436.8	1.0e-07
437.0	1.0e-07
437.2	1.0e-07
437.4	1.0e-07
437.6	1.0e-07
437.8	1.0e-07
438.0	1.0e-07
438.2	1.0e-07
438.4	1.0e-07
438.6	1.0e-07
438.8	1.0e-07
439.0	1.0e-07
439.2	1.0e-07
439.4	1.0e-07
439.6	1.0e-07
439.8	1.0e-07
440.0	1.0e-07
440.2	1.0e-07
440.4	1.0e-07
440.6	1.0e-07
440.8	1.0e-07
441.0	1.0e-07
441.2	1.0e-07
441.4	1.0e-07
441.6	1.0e-07
441.8	1.0e-07
442.0	1.0e-07
442.2	1.0e-07
442.4	1.0e-07
442.6	1.0e-07
442.8	1.0e-07
443.0	1.0e-07
443.2	1.0e-07
443.4	1.0e-07
443.6	1.0e-07
443.8	1.0e-07
444.0	1.0e-07
444.2	1.0e-07
444.4	1.0e-07
444.6	1.0e-07
444.8	1.0e-07
445.0	1.0e-07
445.2	9.4723e-08
445.4	8.9469e-08
445.6	8.4507e-08
445.8	7.982e-08
446.0	7.5392e-08
446.2	7.1211e-08
446.4	6.7261e-08
446.6	6.353e-08
446.8	6.0006e-08
447.0	5.6678e-08
447.2	5.3534e-08
447.4	5.0565e-08
447.6	4.776e-08
447.8	4.5111e-08
448.0	4.2609e-08
448.2	4.0246e-08
448.4	3.8014e-08
448.6	3.5905e-08
448.8	3.5681e-08
449.0	3.7777e-08
449.2	3.9997e-08
449.4	4.2347e-08
449.6	4.4835e-08
449.8	4.747e-08
450.0	5.0259e-08
450.2	5.3212e-08
450.4	5.6338e-08
450.6	5.9648e-08
450.8	6.3153e-08
451.0	6.6864e-08
451.2	7.0792e-08
451.4	7.4952e-08
451.6	7.9356e-08
451.8	8.4018e-08
452.0	8.8955e-08
452.2	9.4181e-08
452.4	9.9715e-08
452.6	1.0e-07
452.8	1.0e-07
453.0	1.0e-07
453.2	1.0e-07
453.4	1.0e-07
453.6	1.0e-07
453.8	1.0e-07
454.0	1.0e-07
454.2	1.0e-07
454.4	1.0e-07
454.6	1.0e-07
454.8	1.0e-07
455.0	1.0e-07
455.2	1.0e-07
455.4	1.0e-07
455.6	1.0e-07
455.8	1.0e-07
456.0	1.0e-07
456.2	1.0e-07
456.4	1.0e-07
456.6	1.0e-07
456.8	1.0e-07
457.0	1.0e-07
457.2	1.0e-07
457.4	1.0e-07
457.6	1.0e-07
457.8	1.0e-07
458.0	1.0e-07
458.2	1.0e-07
458.4	1.0e-07
458.6	1.0e-07
458.8	1.0e-07
459.0	1.0e-07
459.2	1.0e-07
459.4	1.0e-07
459.6	1.0e-07
459.8	1.0e-07
460.0	1.0e-07
460.2	1.0e-07
460.4	1.0e-07
460.6	1.0e-07
460.8	1.0e-07
461.0	1.0e-07
461.2	1.0e-07
461.4	1.0e-07
461.6	1.0e-07
461.8	1.0e-07
462.0	1.0e-07
462.2	1.0e-07
462.4	1.0e-07
462.6	1.0e-07
462.8	1.0e-07
463.0	1.0e-07
463.2	1.0e-07
463.4	1.0e-07
463.6	1.0e-07
463.8	1.0e-07
464.0	1.0e-07
464.2	1.0e-07
464.4	1.0e-07
464.6	1.0e-07
464.8	1.0e-07
465.0	1.0e-07
465.2	1.0e-07
465.4	1.0e-07
465.6	1.0e-07
465.8	1.0e-07
466.0	1.0e-07
466.2	1.0e-07
466.4	1.0e-07
466.6	1.0e-07
466.8	1.0e-07
467.0	1.0e-07
467.2	1.025e-07
467.4	1.4251e-07
467.6	1.9814e-07
467.8	2.7548e-07
468.0	3.8301e-07
468.2	3.6761e-07
468.4	3.5282e-07
468.6	3.3863e-07
468.8	3.2501e-07
469.0	3.1194e-07
469.2	2.9939e-07
469.4	2.8735e-07
469.6	2.7579e-07
469.8	2.6469e-07
470.0	2.5405e-07
470.2	2.4383e-07
470.4	2.3402e-07
470.6	2.2539e-07
470.8	2.3054e-07
471.0	2.358e-07
471.2	2.4117e-07
471.4	2.4668e-07
471.6	2.523e-07
471.8	2.5806e-07
472.0	2.6395e-07
472.2	2.6997e-07
472.4	2.7613e-07
472.6	2.8243e-07
472.8	2.8887e-07
473.0	2.9546e-07
473.2	3.022e-07
473.4	3.0909e-07
473.6	3.1614e-07
473.8	3.2336e-07
474.0	3.3073e-07
474.2	3.3828e-07
474.4	3.3971e-07
474.6	3.3637e-07
474.8	3.3306e-07
475.0	3.2978e-07
475.2	3.2654e-07
475.4	3.2332e-07
475.6	3.2014e-07
475.8	3.1699e-07
476.0	3.1388e-07
476.2	3.1079e-07
476.4	3.0773e-07
476.6	3.047e-07
476.8	3.0171e-07
477.0	2.9874e-07
477.2	2.958e-07
477.4	2.9289e-07
477.6	2.9001e-07
477.8	2.8715e-07
478.0	2.8464e-07
478.2	2.8524e-07
478.4	2.8585e-07
478.6	2.8646e-07
478.8	2.8707e-07
479.0	2.8768e-07
479.2	2.8829e-07
479.4	2.8891e-07
479.6	2.8952e-07
479.8	2.9014e-07
480.0	2.9076e-07
480.2	2.9138e-07
480.4	2.92e-07
480.6	2.9262e-07
480.8	2.9324e-07
481.0	2.9387e-07
481.2	2.9449e-07
481.4	2.9512e-07
481.6	2.9575e-07
481.8	2.981e-07
482.0	3.0155e-07
482.2	3.0504e-07
482.4	3.0857e-07
482.6	3.1214e-07
482.8	3.1575e-07
483.0	3.194e-07
483.2	3.2309e-07
483.4	3.2683e-07
483.6	3.3061e-07
483.8	3.3443e-07
484.0	3.383e-07
484.2	3.4221e-07
484.4	3.4617e-07
484.6	3.5017e-07
484.8	3.5422e-07
485.0	3.5832e-07
485.2	3.6246e-07
485.4	3.6595e-07
485.6	3.658e-07
485.8	3.6565e-07
486.0	3.655e-07
486.2	3.6535e-07
486.4	3.652e-07
486.6	3.6505e-07
486.8	3.649e-07
487.0	3.6475e-07
487.2	3.646e-07
487.4	3.6445e-07
487.6	3.643e-07
487.8	3.6415e-07
488.0	3.64e-07
488.2	3.6385e-07
488.4	3.637e-07
488.6	3.6355e-07
488.8	3.634e-07
489.0	3.6325e-07
489.2	3.6573e-07
489.4	3.6931e-07
489.6	3.7293e-07
489.8	3.7658e-07
490.0	3.8027e-07
490.2	3.8399e-07
490.4	3.8775e-07
490.6	3.9155e-07
490.8	3.9539e-07
491.0	3.9926e-07
491.2	4.0317e-07
491.4	4.0712e-07
491.6	4.1111e-07
491.8	4.1513e-07
492.0	4.192e-07
492.2	4.2331e-07
492.4	4.2745e-07
492.6	4.3164e-07
492.8	4.3476e-07
493.0	4.3497e-07
493.2	4.3519e-07
493.4	4.354e-07
493.6	4.3562e-07
493.8	4.3583e-07
494.0	4.3605e-07
494.2	4.3626e-07
494.4	4.3648e-07
494.6	4.3669e-07
494.8	4.3691e-07
495.0	4.3712e-07
495.2	4.3734e-07
495.4	4.3755e-07
495.6	4.3777e-07
495.8	4.3799e-07
496.0	4.382e-07
496.2	4.3842e-07
496.4	4.3863e-07
496.6	4.371e-07
496.8	4.3526e-07
497.0	4.3343e-07
497.2	4.316e-07
497.4	4.2978e-07
497.6	4.2797e-07
497.8	4.2617e-07
498.0	4.2437e-07
498.2	4.2258e-07
498.4	4.208e-07
498.6	4.1903e-07
498.8	4.1726e-07
499.0	4.155e-07
499.2	4.1375e-07
499.4	4.1201e-07
499.6	4.1027e-07
499.8	4.0854e-07
500.0	4.0682e-07
500.2	3.9542e-07
500.4	3.8434e-07
500.6	3.7356e-07
500.8	3.6309e-07
501.0	3.5292e-07
501.2	3.4303e-07
501.4	3.3341e-07
501.6	3.2407e-07
501.8	3.2907e-07
502.0	3.377e-07
502.2	3.4655e-07
502.4	3.5564e-07
502.6	3.6497e-07
502.8	3.7455e-07
503.0	3.8437e-07
503.2	3.9445e-07
503.4	4.048e-07
503.6	4.1541e-07
503.8	4.2631e-07
504.0	4.3749e-07
504.2	4.4897e-07
504.4	4.6074e-07
504.6	4.7283e-07
504.8	4.8523e-07
505.0	4.9791e-07
505.2	5.0116e-07
505.4	5.0442e-07
505.6	5.0771e-07
505.8	5.1103e-07
506.0	5.1436e-07
506.2	5.1771e-07
506.4	5.2109e-07
506.6	5.2449e-07
506.8	5.2791e-07
507.0	5.3135e-07
507.2	5.3482e-07
507.4	5.3831e-07
507.6	5.4182e-07
507.8	5.4535e-07
508.0	5.4891e-07
508.2	5.5249e-07
508.4	5.5613e-07
508.6	5.5993e-07
508.8	5.6375e-07
509.0	5.676e-07
509.2	5.7148e-07
509.4	5.7539e-07
509.6	5.7932e-07
509.8	5.8327e-07
510.0	5.8726e-07
510.2	5.9127e-07
510.4	5.9531e-07
510.6	5.9937e-07
510.8	6.0347e-07
511.0	6.0759e-07
511.2	6.1174e-07
511.4	6.1592e-07
511.6	6.2012e-07
511.8	6.2161e-07
512.0	6.1953e-07
512.2	6.1747e-07
512.4	6.1541e-07
512.6	6.1336e-07
512.8	6.1131e-07
513.0	6.0927e-07
513.2	6.0724e-07
513.4	6.0521e-07
513.6	6.0319e-07
513.8	6.0118e-07
514.0	5.9918e-07
514.2	5.9718e-07
514.4	5.9518e-07
514.6	5.932e-07
514.8	5.9122e-07
515.0	5.8925e-07
515.2	5.9188e-07
515.4	5.9687e-07
515.6	6.0191e-07
515.8	6.0698e-07
516.0	6.121e-07
516.2	6.1726e-07
516.4	6.2246e-07
516.6	6.2771e-07
516.8	6.33e-07
517.0	6.3833e-07
517.2	6.4372e-07
517.4	6.4914e-07
517.6	6.5461e-07
517.8	6.6013e-07
518.0	6.657e-07
518.2	6.7131e-07
518.4	6.7697e-07
518.6	6.1268e-07
518.8	5.4787e-07
519.0	4.8992e-07
519.2	4.381e-07
519.4	3.9176e-07
519.6	3.5032e-07
519.8	3.1327e-07
520.0	2.8013e-07
520.2	2.505e-07
520.4	2.24e-07
520.6	2.0031e-07
520.8	1.7912e-07
521.0	1.6017e-07
521.2	1.4323e-07
521.4	1.3322e-07
521.6	1.3288e-07
521.8	1.3254e-07
522.0	1.322e-07
522.2	1.3186e-07
522.4	1.3152e-07
522.6	1.3118e-07
522.8	1.3084e-07
523.0	1.3051e-07
523.2	1.3017e-07
523.4	1.2984e-07
523.6	1.2951e-07
523.8	1.2917e-07
524.0	1.2884e-07
524.2	1.2851e-07
524.4	1.2818e-07
524.6	1.2785e-07
524.8	1.2753e-07
525.0	1.2721e-07
525.2	1.2691e-07
525.4	1.266e-07
525.6	1.2629e-07
525.8	1.2599e-07
526.0	1.2568e-07
526.2	1.2538e-07
526.4	1.2508e-07
526.6	1.2477e-07
526.8	1.2447e-07
527.0	1.2417e-07
527.2	1.2387e-07
527.4	1.2357e-07
527.6	1.2327e-07
527.8	1.2298e-07
528.0	1.2268e-07
528.2	1.2238e-07
528.4	1.2209e-07
528.6	1.2179e-07
528.8	1.215e-07
529.0	1.212e-07
529.2	1.2091e-07
529.4	1.2062e-07
529.6	1.2033e-07
529.8	1.201e-07
530.0	1.2006e-07
530.2	1.2002e-07
530.4	1.1998e-07
530.6	1.1994e-07
530.8	1.199e-07
531.0	1.1986e-07
531.2	1.1982e-07
531.4	1.1978e-07
531.6	1.1975e-07
531.8	1.1971e-07
532.0	1.1967e-07
532.2	1.1963e-07
532.4	1.1959e-07
532.6	1.1955e-07
532.8	1.1951e-07
533.0	1.1947e-07
533.2	1.1943e-07
533.4	1.1939e-07
533.6	1.1935e-07
533.8	1.1931e-07
534.0	1.1928e-07
534.2	1.1924e-07
534.4	1.192e-07
534.6	1.1916e-07
534.8	1.1994e-07
535.0	1.2102e-07
535.2	1.221e-07
535.4	1.232e-07
535.6	1.2431e-07
535.8	1.2543e-07
536.0	1.2655e-07
536.2	1.2769e-07
536.4	1.2884e-07
536.6	1.3e-07
536.8	1.3116e-07
537.0	1.3234e-07
537.2	1.3353e-07
537.4	1.3473e-07
537.6	1.3594e-07
537.8	1.3717e-07
538.0	1.384e-07
538.2	1.3964e-07
538.4	1.409e-07
538.6	1.4216e-07
538.8	1.4344e-07
539.0	1.4473e-07
539.2	1.4603e-07
539.4	1.4734e-07
539.6	1.4808e-07
539.8	1.4691e-07
540.0	1.4576e-07
540.2	1.4461e-07
540.4	1.4347e-07
540.6	1.4234e-07
540.8	1.4122e-07
541.0	1.4011e-07
541.2	1.3901e-07
541.4	1.3791e-07
541.6	1.3682e-07
541.8	1.3575e-07
542.0	1.3468e-07
542.2	1.3362e-07
542.4	1.3257e-07
542.6	1.3152e-07
542.8	1.3049e-07
543.0	1.2946e-07
543.2	1.2844e-07
543.4	1.2743e-07
543.6	1.2643e-07
543.8	1.2543e-07
544.0	1.2444e-07
544.2	1.2346e-07
544.4	1.2249e-07
544.6	1.2334e-07
544.8	1.2488e-07
545.0	1.2644e-07
545.2	1.2802e-07
545.4	1.2962e-07
545.6	1.3124e-07
545.8	1.3288e-07
546.0	1.3454e-07
546.2	1.3622e-07
546.4	1.3792e-07
546.6	1.3964e-07
546.8	1.4139e-07
547.0	1.4315e-07
547.2	1.4494e-07
547.4	1.4675e-07
547.6	1.4859e-07
547.8	1.5044e-07
548.0	1.5232e-07
548.2	1.5422e-07
548.4	1.5615e-07
548.6	1.581e-07
548.8	1.6007e-07
549.0	1.6207e-07
549.2	1.641e-07
549.4	1.6763e-07
549.6	1.7642e-07
549.8	1.8567e-07
550.0	1.954e-07
550.2	2.0565e-07
550.4	2.1643e-07
550.6	2.2777e-07
550.8	2.3971e-07
551.0	2.5228e-07
551.2	2.655e-07
551.4	2.7942e-07
551.6	2.9407e-07
551.8	3.0949e-07
552.0	3.2571e-07
552.2	3.4279e-07
552.4	3.6076e-07
552.6	3.7967e-07
552.8	3.9957e-07
553.0	4.2052e-07
553.2	4.4256e-07
553.4	4.6576e-07
553.6	4.9018e-07
553.8	5.1588e-07
554.0	5.4292e-07
554.2	5.7138e-07
554.4	6.5346e-07
554.6	7.7126e-07
554.8	9.1029e-07
555.0	1.0744e-06
555.2	1.2681e-06
555.4	1.4967e-06
555.6	1.7665e-06
555.8	2.0849e-06
556.0	2.4608e-06
556.2	2.9044e-06
556.4	3.428e-06
556.6	4.0459e-06
556.8	4.7753e-06
557.0	5.6361e-06
557.2	6.6522e-06
557.4	7.8514e-06
557.6	9.2668e-06
557.8	1.0937e-05
558.0	1.2909e-05
558.2	1.5236e-05
558.4	1.7983e-05
558.6	2.1225e-05
558.8	2.5051e-05
559.0	2.9567e-05
559.2	3.3767e-05
559.4	3.4647e-05
559.6	3.555e-05
559.8	3.6477e-05
560.0	3.7428e-05
560.2	3.8403e-05
560.4	3.9404e-05
560.6	4.0432e-05
560.8	4.1485e-05
561.0	4.2567e-05
561.2	4.3676e-05
561.4	4.4815e-05
561.6	4.5983e-05
561.8	4.7181e-05
562.0	4.8411e-05
562.2	4.9673e-05
562.4	5.0968e-05
562.6	5.2296e-05
562.8	5.366e-05
563.0	5.5058e-05
563.2	5.6493e-05
563.4	5.7966e-05
563.6	5.9477e-05
563.8	6.1027e-05
564.0	6.2618e-05
564.2	6.425e-05
564.4	6.5925e-05
564.6	6.7643e-05
564.8	6.9406e-05
565.0	7.1215e-05
565.2	7.3072e-05
565.4	7.2372e-05
565.6	6.9424e-05
565.8	6.6595e-05
566.0	6.3882e-05
566.2	6.1279e-05
566.4	5.8782e-05
566.6	5.6387e-05
566.8	5.409e-05
567.0	5.1886e-05
567.2	4.9772e-05
567.4	4.7744e-05
567.6	4.5799e-05
567.8	4.3933e-05
568.0	4.2143e-05
568.2	4.0425e-05
568.4	3.8778e-05
568.6	3.7198e-05
568.8	3.5683e-05
569.0	3.6177e-05
569.2	3.6741e-05
569.4	3.7313e-05
569.6	3.7895e-05
569.8	3.8485e-05
570.0	3.9085e-05
570.2	3.9694e-05
570.4	4.0313e-05
570.6	4.0941e-05
570.8	4.1579e-05
571.0	4.2227e-05
571.2	4.2885e-05
571.4	4.3554e-05
571.6	4.4233e-05
571.8	4.4922e-05
572.0	4.5622e-05
572.2	4.6333e-05
572.4	4.7055e-05
572.6	4.7789e-05
572.8	4.8533e-05
573.0	4.929e-05
573.2	5.0058e-05
573.4	5.0838e-05
573.6	5.1893e-05
573.8	5.4058e-05
574.0	5.6314e-05
574.2	5.8663e-05
574.4	6.111e-05
574.6	6.366e-05
574.8	6.6316e-05
575.0	6.9082e-05
575.2	7.5195e-05
575.4	8.1143e-05
575.6	8.7178e-05
575.8	9.3641e-05
576.0	1.0138e-04
576.2	1.11e-04
576.4	1.1964e-04
576.6	1.3336e-04
576.8	1.4347e-04
577.0	1.6078e-04
577.2	1.7702e-04
577.4	1.9622e-04
577.6	2.1701e-04
577.8	2.4479e-04
578.0	2.7265e-04
578.2	3.0756e-04
578.4	3.4683e-04
578.6	3.9398e-04
578.8	4.4672e-04
579.0	5.0586e-04
579.2	5.7958e-04
579.4	6.7106e-04
579.6	7.739e-04
579.8	8.9835e-04
580.0	0.00105
580.2	0.00125
580.4	0.00148
580.6	0.00175
580.8	0.00207
581.0	0.00247
581.2	0.00297
581.4	0.00355
581.6	0.0043
581.8	0.00522
582.0	0.00625
582.2	0.00754
582.4	0.00905
582.6	0.01077
582.8	0.01266
583.0	0.01464
583.2	0.01678
583.4	0.01891
583.6	0.02082
583.8	0.02258
584.0	0.02403
584.2	0.02482
584.4	0.02571
584.6	0.02638
584.8	0.02686
585.0	0.02724
585.2	0.02759
585.4	0.0279
585.6	0.02821
585.8	0.02865
586.0	0.02928
586.2	0.02997
586.4	0.03073
586.6	0.03174
586.8	0.0324
587.0	0.03372
587.2	0.0353
587.4	0.03708
587.6	0.03918
587.8	0.04142
588.0	0.04377
588.2	0.04625
588.4	0.04959
588.6	0.05331
588.8	0.05744
589.0	0.06215
589.2	0.06745
589.4	0.07312
589.6	0.07978
589.8	0.08712
590.0	0.0955
590.2	0.10482
590.4	0.11514
590.6	0.12679
590.8	0.1381
591.0	0.15199
591.2	0.16754
591.4	0.18471
591.6	0.20359
591.8	0.22417
592.0	0.24675
592.2	0.27136
592.4	0.29822
592.6	0.3267
592.8	0.3575
593.0	0.3897
593.2	0.4238
593.4	0.45968
593.6	0.49672
593.8	0.53495
594.0	0.57239
594.2	0.61132
594.4	0.64855
594.6	0.68574
594.8	0.72117
595.0	0.75464
595.2	0.78635
595.4	0.8143
595.6	0.841
595.8	0.86437
596.0	0.88491
596.2	0.90261
596.4	0.9175
596.6	0.93031
596.8	0.94041
597.0	0.94897
597.2	0.95574
597.4	0.96105
597.6	0.96384
597.8	0.96825
598.0	0.96987
598.2	0.97199
598.4	0.97341
598.6	0.97411
598.8	0.97525
599.0	0.97587
599.2	0.97675
599.4	0.97785
599.6	0.97927
599.8	0.98021
600.0	0.98176
600.2	0.98301
600.4	0.98411
600.6	0.98575
600.8	0.98759
601.0	0.98835
601.2	0.99036
601.4	0.99206
601.6	0.99349
601.8	0.99424
602.0	0.99537
602.2	0.99635
602.4	0.99717
602.6	0.99778
602.8	0.9981
603.0	0.99863
603.2	0.99839
603.4	0.99893
603.6	0.9989
603.8	0.99857
604.0	0.99778
604.2	0.99778
604.4	0.99725
604.6	0.99698
604.8	0.99612
605.0	0.99589
605.2	0.99583
605.4	0.99532
605.6	0.99497
605.8	0.99534
606.0	0.99493
606.2	0.99543
606.4	0.99604
606.6	0.996
606.8	0.99518
607.0	0.99605
607.2	0.99644
607.4	0.99602
607.6	0.99722
607.8	0.99731
608.0	0.99765
608.2	0.9981
608.4	0.9982
608.6	0.99847
608.8	0.99884
609.0	0.99909
609.2	0.99915
609.4	0.99949
609.6	0.99947
609.8	0.9999
610.0	0.99968
610.2	0.99991
610.4	0.99984
610.6	0.99949
610.8	0.99878
611.0	0.99879
611.2	0.99849
611.4	0.99793
611.6	0.99725
611.8	0.99697
612.0	0.99642
612.2	0.99591
612.4	0.99489
612.6	0.99446
612.8	0.99378
613.0	0.99348
613.2	0.99266
613.4	0.99161
613.6	0.99092
613.8	0.9903
614.0	0.98965
614.2	0.98898
614.4	0.98836
614.6	0.98783
614.8	0.98759
615.0	0.98681
615.2	0.98627
615.4	0.98594
615.6	0.98507
615.8	0.98535
616.0	0.98497
616.2	0.98432
616.4	0.98406
616.6	0.98362
616.8	0.98355
617.0	0.98362
617.2	0.98365
617.4	0.98391
617.6	0.98342
617.8	0.98346
618.0	0.98302
618.2	0.98334
618.4	0.98356
618.6	0.98354
618.8	0.98372
619.0	0.98418
619.2	0.98462
619.4	0.98505
619.6	0.98535
619.8	0.98598
620.0	0.9861
620.2	0.98657
620.4	0.98683
620.6	0.98753
620.8	0.98762
621.0	0.98834
621.2	0.98894
621.4	0.98955
621.6	0.98959
621.8	0.99003
622.0	0.99004
622.2	0.99029
622.4	0.99021
622.6	0.99027
622.8	0.99031
623.0	0.99036
623.2	0.99058
623.4	0.99037
623.6	0.99005
623.8	0.98977
624.0	0.98978
624.2	0.98964
624.4	0.98947
624.6	0.98879
624.8	0.98867
625.0	0.98803
625.2	0.98797
625.4	0.9878
625.6	0.9873
625.8	0.98714
626.0	0.98711
626.2	0.98682
626.4	0.98641
626.6	0.98613
626.8	0.98618
627.0	0.98581
627.2	0.98595
627.4	0.98603
627.6	0.98626
627.8	0.98607
628.0	0.98569
628.2	0.9864
628.4	0.98629
628.6	0.98616
628.8	0.98638
629.0	0.9867
629.2	0.98627
629.4	0.98647
629.6	0.98607
629.8	0.98657
630.0	0.98667
630.2	0.98659
630.4	0.98635
630.6	0.98607
630.8	0.9858
631.0	0.98546
631.2	0.98488
631.4	0.98429
631.6	0.98417
631.8	0.98318
632.0	0.98276
632.2	0.98179
632.4	0.98099
632.6	0.98036
632.8	0.97991
633.0	0.97847
633.2	0.97822
633.4	0.97746
633.6	0.97672
633.8	0.97597
634.0	0.97509
634.2	0.97478
634.4	0.97416
634.6	0.97337
634.8	0.97306
635.0	0.97275
635.2	0.97249
635.4	0.97158
635.6	0.97221
635.8	0.97203
636.0	0.97207
636.2	0.97229
636.4	0.9724
636.6	0.97301
636.8	0.97319
637.0	0.97325
637.2	0.97438
637.4	0.9748
637.6	0.97566
637.8	0.97605
638.0	0.97699
638.2	0.97787
638.4	0.97865
638.6	0.97986
638.8	0.98077
639.0	0.98199
639.2	0.98283
639.4	0.98334
639.6	0.98449
639.8	0.98511
640.0	0.98626
640.2	0.98731
640.4	0.98837
640.6	0.98933
640.8	0.99016
641.0	0.99048
641.2	0.99181
641.4	0.99203
641.6	0.99314
641.8	0.99402
642.0	0.99409
642.2	0.99439
642.4	0.99549
642.6	0.99608
642.8	0.99634
643.0	0.99699
643.2	0.99746
643.4	0.99797
643.6	0.99829
643.8	0.99873
644.0	0.99922
644.2	0.99963
644.4	0.99999
644.6	1.0004
644.8	1.00021
645.0	1.00126
645.2	1.00132
645.4	1.00156
645.6	1.0014
645.8	1.00113
646.0	1.00147
646.2	1.00171
646.4	1.00139
646.6	1.00136
646.8	1.00128
647.0	1.0006
647.2	1.00043
647.4	1.00004
647.6	0.9994
647.8	0.99852
648.0	0.99827
648.2	0.99724
648.4	0.99659
648.6	0.99561
648.8	0.99486
649.0	0.99346
649.2	0.99254
649.4	0.99159
649.6	0.98983
649.8	0.98866
650.0	0.98762
650.2	0.98647
650.4	0.98486
650.6	0.98366
650.8	0.98262
651.0	0.9808
651.2	0.98034
651.4	0.97914
651.6	0.9779
651.8	0.97701
652.0	0.97638
652.2	0.97532
652.4	0.97483
652.6	0.97417
652.8	0.97352
653.0	0.97354
653.2	0.97336
653.4	0.97344
653.6	0.97347
653.8	0.97392
654.0	0.97441
654.2	0.97504
654.4	0.97551
654.6	0.97639
654.8	0.97707
655.0	0.9781
655.2	0.97868
655.4	0.9805
655.6	0.98185
655.8	0.9828
656.0	0.9839
656.2	0.98561
656.4	0.9871
656.6	0.98842
656.8	0.99001
657.0	0.99104
657.2	0.99217
657.4	0.99336
657.6	0.99483
657.8	0.99567
658.0	0.99653
658.2	0.99777
658.4	0.99867
658.6	0.99962
658.8	0.99994
659.0	1.00026
659.2	1.00082
659.4	1.00128
659.6	1.00184
659.8	1.00166
660.0	1.00176
660.2	1.00183
660.4	1.00128
660.6	1.00157
660.8	1.00092
661.0	1.00044
661.2	1.00036
661.4	0.99972
661.6	1.00007
661.8	0.99884
662.0	0.99819
662.2	0.99819
662.4	0.99771
662.6	0.9972
662.8	0.9967
663.0	0.99584
663.2	0.99602
663.4	0.99546
663.6	0.99533
663.8	0.99542
664.0	0.99556
664.2	0.99505
664.4	0.99494
664.6	0.99495
664.8	0.9952
665.0	0.99494
665.2	0.99476
665.4	0.99507
665.6	0.99535
665.8	0.9955
666.0	0.99506
666.2	0.9954
666.4	0.99587
666.6	0.99579
666.8	0.99573
667.0	0.99613
667.2	0.99558
667.4	0.99544
667.6	0.99573
667.8	0.99529
668.0	0.99501
668.2	0.9946
668.4	0.99437
668.6	0.99381
668.8	0.99337
669.0	0.9931
669.2	0.99223
669.4	0.99191
669.6	0.99096
669.8	0.99016
670.0	0.98976
670.2	0.98903
670.4	0.98844
670.6	0.9875
670.8	0.98677
671.0	0.98612
671.2	0.9856
671.4	0.98516
671.6	0.98473
671.8	0.98435
672.0	0.98355
672.2	0.98293
672.4	0.98319
672.6	0.98278
672.8	0.98289
673.0	0.98292
673.2	0.98264
673.4	0.98309
673.6	0.98315
673.8	0.98366
674.0	0.98356
674.2	0.98425
674.4	0.98451
674.6	0.98553
674.8	0.98599
675.0	0.98633
675.2	0.98746
675.4	0.98811
675.6	0.98969
675.8	0.98985
676.0	0.99081
676.2	0.9912
676.4	0.99222
676.6	0.99255
676.8	0.99376
677.0	0.99453
677.2	0.99473
677.4	0.99496
677.6	0.99577
677.8	0.99561
678.0	0.99578
678.2	0.99583
678.4	0.9957
678.6	0.99592
678.8	0.99575
679.0	0.99547
679.2	0.99475
679.4	0.99495
679.6	0.99427
679.8	0.99367
680.0	0.99316
680.2	0.99218
680.4	0.99195
680.6	0.991
680.8	0.99055
681.0	0.98966
681.2	0.98893
681.4	0.98807
681.6	0.98786
681.8	0.98718
682.0	0.98654
682.2	0.98667
682.4	0.98534
682.6	0.98516
682.8	0.98503
683.0	0.98468
683.2	0.98471
683.4	0.98475
683.6	0.98464
683.8	0.98457
684.0	0.98474
684.2	0.98461
684.4	0.98472
684.6	0.9857
684.8	0.98591
685.0	0.98647
685.2	0.98713
685.4	0.98782
685.6	0.98823
685.8	0.98858
686.0	0.9898
686.2	0.99035
686.4	0.99109
686.6	0.99167
686.8	0.99243
687.0	0.99304
687.2	0.9935
687.4	0.99397
687.6	0.99438
687.8	0.99499
688.0	0.99505
688.2	0.99526
688.4	0.99582
688.6	0.9965
688.8	0.99669
689.0	0.99669
689.2	0.99696
689.4	0.99714
689.6	0.99781
689.8	0.9975
690.0	0.99793
690.2	0.9981
690.4	0.99794
690.6	0.9984
690.8	0.9989
691.0	0.99872
691.2	0.99877
691.4	0.99947
691.6	0.99904
691.8	0.99962
692.0	0.9993
692.2	1.00018
692.4	1.00034
692.6	1.0002
692.8	1.00068
693.0	1.00008
693.2	1.0003
693.4	0.99999
693.6	0.99934
693.8	0.99874
694.0	0.99816
694.2	0.99734
694.4	0.9967
694.6	0.99537
694.8	0.99452
695.0	0.99281
695.2	0.99174
695.4	0.98956
695.6	0.98772
695.8	0.98578
696.0	0.98365
696.2	0.98113
696.4	0.97881
696.6	0.97647
696.8	0.97441
697.0	0.97141
697.2	0.96931
697.4	0.96696
697.6	0.96452
697.8	0.96253
698.0	0.96077
698.2	0.95879
698.4	0.95713
698.6	0.95561
698.8	0.95372
699.0	0.95186
699.2	0.95009
699.4	0.94721
699.6	0.944
699.8	0.94003
700.0	0.9345
700.2	0.92689
700.4	0.91714
700.6	0.9047
700.8	0.88932
701.0	0.86957
701.2	0.84595
701.4	0.81735
701.6	0.78454
701.8	0.74677
702.0	0.70538
702.2	0.66012
702.4	0.61259
702.6	0.56356
702.8	0.51396
703.0	0.46531
703.2	0.4182
703.4	0.3736
703.6	0.33225
703.8	0.29425
704.0	0.25919
704.2	0.22816
704.4	0.20042
704.6	0.17572
704.8	0.15416
705.0	0.13512
705.2	0.13376
705.4	0.11063
705.6	0.0959
705.8	0.08416
706.0	0.07379
706.2	0.06491
706.4	0.05712
706.6	0.05525
706.8	0.04528
707.0	0.04001
707.2	0.03547
707.4	0.03151
707.6	0.02799
707.8	0.0269
708.0	0.02294
708.2	0.0201
708.4	0.01798
708.6	0.01615
708.8	0.01451
709.0	0.01306
709.2	0.01365
709.4	0.01091
709.6	0.00983
709.8	0.00891
710.0	0.00808
710.2	0.00734
710.4	0.00742
710.6	0.00595
710.8	0.00532
711.0	0.00486
711.2	0.00446
711.4	0.00406
711.6	0.00373
711.8	0.0038
712.0	0.00312
712.2	0.00287
712.4	0.00264
712.6	0.00243
712.8	0.00225
713.0	0.00205
713.2	0.00193
713.4	0.00177
713.6	0.00165
713.8	0.00153
714.0	0.00143
714.2	0.00133
714.4	0.00127
714.6	0.00116
714.8	0.00108
715.0	0.00101
715.2	9.4423e-04
715.4	8.8522e-04
715.6	8.542e-04
715.8	7.7753e-04
716.0	7.2235e-04
716.2	6.8168e-04
716.4	6.3726e-04
716.6	6.0686e-04
716.8	5.7002e-04
717.0	5.3247e-04
717.2	5.0473e-04
717.4	4.8031e-04
717.6	4.5236e-04
717.8	4.3007e-04
718.0	4.0806e-04
718.2	3.7701e-04
718.4	3.682e-04
718.6	3.4968e-04
718.8	3.34e-04
719.0	3.1705e-04
719.2	3.0288e-04
719.4	2.8884e-04
719.6	2.7582e-04
719.8	2.6624e-04
720.0	2.5154e-04
720.2	2.3953e-04
720.4	2.3253e-04
720.6	2.2232e-04
720.8	2.1089e-04
721.0	2.0476e-04
721.2	1.9623e-04
721.4	1.8961e-04
721.6	1.8203e-04
721.8	1.7672e-04
722.0	1.6922e-04
722.2	1.6599e-04
722.4	1.5733e-04
722.6	1.5377e-04
722.8	1.4761e-04
723.0	1.429e-04
723.2	1.3822e-04
723.4	1.346e-04
723.6	1.3139e-04
723.8	1.2741e-04
724.0	1.2352e-04
724.2	1.1979e-04
724.4	1.1685e-04
724.6	1.1362e-04
724.8	1.1076e-04
725.0	1.0872e-04
725.2	1.0751e-04
725.4	1.0632e-04
725.6	1.0514e-04
725.8	1.0397e-04
726.0	1.0282e-04
726.2	1.0168e-04
726.4	1.0055e-04
726.6	9.9429e-05
726.8	9.8321e-05
727.0	9.7225e-05
727.2	9.6142e-05
727.4	9.507e-05
727.6	9.4011e-05
727.8	9.2963e-05
728.0	9.1927e-05
728.2	9.0903e-05
728.4	8.989e-05
728.6	8.8888e-05
728.8	8.7898e-05
729.0	8.6918e-05
729.2	8.595e-05
729.4	8.4992e-05
729.6	8.4045e-05
729.8	8.3108e-05
730.0	8.3015e-05
730.2	8.3223e-05
730.4	8.3431e-05
730.6	8.3641e-05
730.8	8.385e-05
731.0	8.4061e-05
731.2	8.4272e-05
731.4	8.4483e-05
731.6	8.4695e-05
731.8	8.4907e-05
732.0	8.512e-05
732.2	8.5334e-05
732.4	8.5548e-05
732.6	8.5762e-05
732.8	8.5977e-05
733.0	8.6193e-05
733.2	8.6409e-05
733.4	8.6989e-05
733.6	8.8213e-05
733.8	8.9455e-05
734.0	9.0713e-05
734.2	9.199e-05
734.4	9.3284e-05
734.6	9.4597e-05
734.8	9.5928e-05
735.0	9.7278e-05
735.2	9.8647e-05
735.4	1.0039e-04
735.6	1.0261e-04
735.8	1.0487e-04
736.0	1.0718e-04
736.2	1.0954e-04
736.4	1.1196e-04
736.6	1.1443e-04
736.8	1.1695e-04
737.0	1.1953e-04
737.2	1.2268e-04
737.4	1.2608e-04
737.6	1.2957e-04
737.8	1.3316e-04
738.0	1.3685e-04
738.2	1.4064e-04
738.4	1.4454e-04
738.6	1.4854e-04
738.8	1.5264e-04
739.0	1.5667e-04
739.2	1.6081e-04
739.4	1.6505e-04
739.6	1.6941e-04
739.8	1.7389e-04
740.0	1.7848e-04
740.2	1.8319e-04
740.4	1.8803e-04
740.6	1.9238e-04
740.8	1.9589e-04
741.0	1.9947e-04
741.2	2.0311e-04
741.4	2.0682e-04
741.6	2.106e-04
741.8	2.1444e-04
742.0	2.1836e-04
742.2	2.2235e-04
742.4	2.2298e-04
742.6	2.2232e-04
742.8	2.2166e-04
743.0	2.21e-04
743.2	2.2035e-04
743.4	2.1969e-04
743.6	2.1904e-04
743.8	2.1839e-04
744.0	2.1775e-04
744.2	2.171e-04
744.4	2.1646e-04
744.6	2.1498e-04
744.8	2.1094e-04
745.0	2.0698e-04
745.2	2.031e-04
745.4	1.9929e-04
745.6	1.9555e-04
745.8	1.9188e-04
746.0	1.8828e-04
746.2	1.8475e-04
746.4	1.8128e-04
746.6	1.7788e-04
746.8	1.7454e-04
747.0	1.7087e-04
747.2	1.6714e-04
747.4	1.6349e-04
747.6	1.5992e-04
747.8	1.5644e-04
748.0	1.5302e-04
748.2	1.4968e-04
748.4	1.4642e-04
748.6	1.4328e-04
748.8	1.4079e-04
749.0	1.3834e-04
749.2	1.3593e-04
749.4	1.3357e-04
749.6	1.3125e-04
749.8	1.2897e-04
750.0	1.2672e-04
750.2	1.2452e-04
750.4	1.2269e-04
750.6	1.2136e-04
750.8	1.2005e-04
751.0	1.1875e-04
751.2	1.1747e-04
751.4	1.162e-04
751.6	1.1494e-04
751.8	1.137e-04
752.0	1.1247e-04
752.2	1.1195e-04
752.4	1.1169e-04
752.6	1.1143e-04
752.8	1.1117e-04
753.0	1.1092e-04
753.2	1.1066e-04
753.4	1.104e-04
753.6	1.1015e-04
753.8	1.0989e-04
754.0	1.0964e-04
754.2	1.0939e-04
754.4	1.0934e-04
754.6	1.0997e-04
754.8	1.106e-04
755.0	1.1124e-04
755.2	1.1188e-04
755.4	1.1252e-04
755.6	1.1317e-04
755.8	1.1382e-04
756.0	1.1447e-04
756.2	1.1513e-04
756.4	1.1579e-04
756.6	1.1646e-04
756.8	1.1777e-04
757.0	1.1932e-04
757.2	1.2089e-04
757.4	1.2248e-04
757.6	1.2409e-04
757.8	1.2572e-04
758.0	1.2738e-04
758.2	1.2906e-04
758.4	1.3079e-04
758.6	1.33e-04
758.8	1.3524e-04
759.0	1.3752e-04
759.2	1.3984e-04
759.4	1.422e-04
759.6	1.446e-04
759.8	1.4704e-04
760.0	1.4952e-04
760.2	1.5224e-04
760.4	1.5532e-04
760.6	1.5846e-04
760.8	1.6166e-04
761.0	1.6493e-04
761.2	1.6826e-04
761.4	1.7167e-04
761.6	1.7514e-04
761.8	1.7868e-04
762.0	1.8194e-04
762.2	1.8513e-04
762.4	1.8838e-04
762.6	1.9169e-04
762.8	1.9506e-04
763.0	1.9848e-04
763.2	2.0197e-04
763.4	2.0551e-04
763.6	2.0912e-04
763.8	2.1279e-04
764.0	2.1653e-04
764.2	2.1994e-04
764.4	2.2208e-04
764.6	2.2425e-04
764.8	2.2644e-04
765.0	2.2865e-04
765.2	2.3088e-04
765.4	2.3313e-04
765.6	2.354e-04
765.8	2.377e-04
766.0	2.4002e-04
766.2	2.4236e-04
766.4	2.4472e-04
766.6	2.4466e-04
766.8	2.4367e-04
767.0	2.4268e-04
767.2	2.417e-04
767.4	2.4072e-04
767.6	2.3975e-04
767.8	2.3878e-04
768.0	2.3781e-04
768.2	2.3663e-04
768.4	2.3208e-04
768.6	2.2762e-04
768.8	2.2325e-04
769.0	2.1895e-04
769.2	2.1475e-04
769.4	2.1062e-04
769.6	2.0657e-04
769.8	2.026e-04
770.0	1.987e-04
770.2	1.9488e-04
770.4	1.9114e-04
770.6	1.8746e-04
770.8	1.8331e-04
771.0	1.7745e-04
771.2	1.7177e-04
771.4	1.6627e-04
771.6	1.6095e-04
771.8	1.5571e-04
772.0	1.5062e-04
772.2	1.4569e-04
772.4	1.4093e-04
772.6	1.3632e-04
772.8	1.3186e-04
773.0	1.2755e-04
773.2	1.2338e-04
773.4	1.1934e-04
773.6	1.1544e-04
773.8	1.1166e-04
774.0	1.0801e-04
774.2	1.0448e-04
774.4	1.011e-04
774.6	9.7842e-05
774.8	9.4685e-05
775.0	9.1631e-05
775.2	8.8675e-05
775.4	8.5814e-05
775.6	8.3046e-05
775.8	8.0367e-05
776.0	7.7774e-05
776.2	7.5265e-05
776.4	7.2837e-05
776.6	7.0488e-05
776.8	6.8214e-05
777.0	6.6013e-05
777.2	6.3884e-05
777.4	6.1823e-05
777.6	5.9829e-05
777.8	5.7899e-05
778.0	5.6031e-05
778.2	5.4223e-05
778.4	5.2474e-05
778.6	5.0896e-05
778.8	4.9526e-05
779.0	4.8193e-05
779.2	4.6896e-05
779.4	4.5634e-05
779.6	4.4405e-05
779.8	4.321e-05
780.0	4.2047e-05
780.2	4.0915e-05
780.4	3.9814e-05
780.6	3.8742e-05
780.8	3.7765e-05
781.0	3.7033e-05
781.2	3.6316e-05
781.4	3.5612e-05
781.6	3.4922e-05
781.8	3.4245e-05
782.0	3.3581e-05
782.2	3.2931e-05
782.4	3.2293e-05
782.6	3.1856e-05
782.8	3.1426e-05
783.0	3.1003e-05
783.2	3.0585e-05
783.4	3.0173e-05
783.6	2.9767e-05
783.8	2.9366e-05
784.0	2.897e-05
784.2	2.8618e-05
784.4	2.8283e-05
784.6	2.7951e-05
784.8	2.7624e-05
785.0	2.73e-05
785.2	2.6981e-05
785.4	2.6664e-05
785.6	2.6352e-05
785.8	2.6157e-05
786.0	2.6067e-05
786.2	2.5978e-05
786.4	2.589e-05
786.6	2.5801e-05
786.8	2.5713e-05
787.0	2.5625e-05
787.2	2.5537e-05
787.4	2.5499e-05
787.6	2.5582e-05
787.8	2.5664e-05
788.0	2.5747e-05
788.2	2.583e-05
788.4	2.5914e-05
788.6	2.5997e-05
788.8	2.6081e-05
789.0	2.617e-05
789.2	2.6321e-05
789.4	2.6473e-05
789.6	2.6626e-05
789.8	2.678e-05
790.0	2.6934e-05
790.2	2.709e-05
790.4	2.7246e-05
790.6	2.7404e-05
790.8	2.7675e-05
791.0	2.7971e-05
791.2	2.827e-05
791.4	2.8572e-05
791.6	2.8878e-05
791.8	2.9187e-05
792.0	2.9499e-05
792.2	2.9814e-05
792.4	3.0218e-05
792.6	3.0682e-05
792.8	3.1153e-05
793.0	3.1631e-05
793.2	3.2116e-05
793.4	3.2609e-05
793.6	3.311e-05
793.8	3.3618e-05
794.0	3.4262e-05
794.2	3.5123e-05
794.4	3.6005e-05
794.6	3.691e-05
794.8	3.7837e-05
795.0	3.8788e-05
795.2	3.9637e-05
795.4	4.0557e-05
795.6	4.1498e-05
795.8	4.2461e-05
796.0	4.3446e-05
796.2	4.4454e-05
796.4	4.5492e-05
796.6	4.6576e-05
796.8	4.7686e-05
797.0	4.8823e-05
797.2	4.9987e-05
797.4	5.1178e-05
797.6	5.2398e-05
797.8	5.3739e-05
798.0	5.5165e-05
798.2	5.6629e-05
798.4	5.8133e-05
798.6	5.9676e-05
798.8	6.126e-05
799.0	6.2877e-05
799.2	6.4433e-05
799.4	6.6027e-05
799.6	6.7661e-05
799.8	6.9335e-05
800.0	7.105e-05
800.2	7.2808e-05
800.4	7.4589e-05
800.6	7.6391e-05
800.8	7.8237e-05
801.0	8.0128e-05
801.2	8.2064e-05
801.4	8.4048e-05
801.6	8.6079e-05
801.8	8.7764e-05
802.0	8.9452e-05
802.2	9.1172e-05
802.4	9.2926e-05
802.6	9.4713e-05
802.8	9.6534e-05
803.0	9.7009e-05
803.2	9.796e-05
803.4	9.9015e-05
803.6	1.0016e-04
803.8	1.0132e-04
804.0	1.0249e-04
804.2	1.0368e-04
804.4	1.0488e-04
804.6	1.0609e-04
804.8	1.0732e-04
805.0	1.0856e-04
805.2	1.0933e-04
805.4	1.0956e-04
805.6	1.0979e-04
805.8	1.1002e-04
806.0	1.1025e-04
806.2	1.1048e-04
806.4	1.1071e-04
806.6	1.1094e-04
806.8	1.1118e-04
807.0	1.1108e-04
807.2	1.1047e-04
807.4	1.0986e-04
807.6	1.0926e-04
807.8	1.0866e-04
808.0	1.0806e-04
808.2	1.0747e-04
808.4	1.0688e-04
808.6	1.0629e-04
808.8	1.0547e-04
809.0	1.0414e-04
809.2	1.0283e-04
809.4	1.0153e-04
809.6	1.0025e-04
809.8	9.899e-05
810.0	9.7743e-05
810.2	9.6512e-05
810.4	9.5296e-05
810.6	9.3998e-05
810.8	9.2429e-05
811.0	9.0885e-05
811.2	8.9368e-05
811.4	8.7876e-05
811.6	8.6409e-05
811.8	8.4966e-05
812.0	8.3547e-05
812.2	8.2152e-05
812.4	8.0714e-05
812.6	7.9004e-05
812.8	7.7329e-05
813.0	7.569e-05
813.2	7.4086e-05
813.4	7.2516e-05
813.6	7.0979e-05
813.8	6.9475e-05
814.0	6.8003e-05
814.2	6.6557e-05
814.4	6.5105e-05
814.6	6.3686e-05
814.8	6.2297e-05
815.0	6.0938e-05
815.2	5.961e-05
815.4	5.831e-05
815.6	5.7038e-05
815.8	5.5795e-05
816.0	5.4579e-05
816.2	5.3409e-05
816.4	5.2263e-05
816.6	5.1143e-05
816.8	5.0046e-05
817.0	4.8973e-05
817.2	4.7923e-05
817.4	4.6895e-05
817.6	4.589e-05
817.8	4.4906e-05
818.0	4.3972e-05
818.2	4.3057e-05
818.4	4.2162e-05
818.6	4.1285e-05
818.8	4.0426e-05
819.0	3.9586e-05
819.2	3.8763e-05
819.4	3.7956e-05
819.6	3.7167e-05
819.8	3.6518e-05
820.0	3.589e-05
820.2	3.5273e-05
820.4	3.4666e-05
820.6	3.407e-05
820.8	3.3484e-05
821.0	3.2909e-05
821.2	3.2343e-05
821.4	3.1786e-05
821.6	3.131e-05
821.8	3.0851e-05
822.0	3.0398e-05
822.2	2.9952e-05
822.4	2.9513e-05
822.6	2.908e-05
822.8	2.8654e-05
823.0	2.8233e-05
823.2	2.7819e-05
823.4	2.7554e-05
823.6	2.7324e-05
823.8	2.7095e-05
824.0	2.6869e-05
824.2	2.6644e-05
824.4	2.6421e-05
824.6	2.62e-05
824.8	2.5981e-05
825.0	2.5764e-05
825.2	2.5626e-05
825.4	2.5513e-05
825.6	2.5401e-05
825.8	2.5289e-05
826.0	2.5178e-05
826.2	2.5067e-05
826.4	2.4957e-05
826.6	2.4847e-05
826.8	2.4738e-05
827.0	2.4722e-05
827.2	2.4745e-05
827.4	2.4767e-05
827.6	2.479e-05
827.8	2.4813e-05
828.0	2.4835e-05
828.2	2.4858e-05
828.4	2.4881e-05
828.6	2.4904e-05
828.8	2.4988e-05
829.0	2.5106e-05
829.2	2.5223e-05
829.4	2.5341e-05
829.6	2.546e-05
829.8	2.558e-05
830.0	2.57e-05
830.2	2.582e-05
830.4	2.5941e-05
830.6	2.6201e-05
830.8	2.6552e-05
831.0	2.6908e-05
831.2	2.7268e-05
831.4	2.7633e-05
831.6	2.8003e-05
831.8	2.8378e-05
832.0	2.8759e-05
832.2	2.9144e-05
832.4	2.9649e-05
832.6	3.0249e-05
832.8	3.0861e-05
833.0	3.1486e-05
833.2	3.2123e-05
833.4	3.2773e-05
833.6	3.3437e-05
833.8	3.4113e-05
834.0	3.4804e-05
834.2	3.5625e-05
834.4	3.657e-05
834.6	3.754e-05
834.8	3.8536e-05
835.0	3.9558e-05
835.2	4.0607e-05
835.4	4.1685e-05
835.6	4.279e-05
835.8	4.3925e-05
836.0	4.5265e-05
836.2	4.683e-05
836.4	4.8449e-05
836.6	5.0123e-05
836.8	5.1856e-05
837.0	5.3649e-05
837.2	5.5503e-05
837.4	5.7422e-05
837.6	5.9407e-05
837.8	6.1678e-05
838.0	6.4304e-05
838.2	6.7041e-05
838.4	6.9894e-05
838.6	7.2869e-05
838.8	7.5971e-05
839.0	7.9204e-05
839.2	8.2575e-05
839.4	8.609e-05
839.6	8.9831e-05
839.8	9.3843e-05
840.0	9.8034e-05
840.2	1.0241e-04
840.4	1.0699e-04
840.6	1.1176e-04
840.8	1.1675e-04
841.0	1.2197e-04
841.2	1.2742e-04
841.4	1.3266e-04
841.6	1.374e-04
841.8	1.4232e-04
842.0	1.4741e-04
842.2	1.5268e-04
842.4	1.5815e-04
842.6	1.6381e-04
842.8	1.6967e-04
843.0	1.7574e-04
843.2	1.8039e-04
843.4	1.8227e-04
843.6	1.8418e-04
843.8	1.8611e-04
844.0	1.8805e-04
844.2	1.9002e-04
844.4	1.9201e-04
844.6	1.9401e-04
844.8	1.9604e-04
845.0	1.9632e-04
845.2	1.9311e-04
845.4	1.8996e-04
845.6	1.8685e-04
845.8	1.838e-04
846.0	1.808e-04
846.2	1.7785e-04
846.4	1.7494e-04
846.6	1.7208e-04
846.8	1.6868e-04
847.0	1.6408e-04
847.2	1.596e-04
847.4	1.5525e-04
847.6	1.5101e-04
847.8	1.4689e-04
848.0	1.4288e-04
848.2	1.3899e-04
848.4	1.3519e-04
848.6	1.316e-04
848.8	1.2831e-04
849.0	1.2511e-04
849.2	1.2199e-04
849.4	1.1894e-04
849.6	1.1597e-04
849.8	1.1308e-04
850.0	1.1026e-04
850.2	1.0751e-04
850.4	1.05e-04
850.6	1.0304e-04
850.8	1.0111e-04
851.0	9.9214e-05
851.2	9.7356e-05
851.4	9.5533e-05
851.6	9.3743e-05
851.8	9.1988e-05
852.0	9.0265e-05
852.2	8.8723e-05
852.4	8.7635e-05
852.6	8.6561e-05
852.8	8.5499e-05
853.0	8.4451e-05
853.2	8.3416e-05
853.4	8.2393e-05
853.6	8.1383e-05
853.8	8.0385e-05
854.0	7.9564e-05
854.2	7.9271e-05
854.4	7.898e-05
854.6	7.8689e-05
854.8	7.84e-05
855.0	7.8112e-05
855.2	7.7824e-05
855.4	7.7538e-05
855.6	7.7253e-05
855.8	7.7088e-05
856.0	7.7326e-05
856.2	7.7564e-05
856.4	7.7802e-05
856.6	7.8041e-05
856.8	7.8282e-05
857.0	7.8522e-05
857.2	7.8764e-05
857.4	7.9006e-05
857.6	7.9363e-05
857.8	8.013e-05
858.0	8.0904e-05
858.2	8.1685e-05
858.4	8.2474e-05
858.6	8.327e-05
858.8	8.4074e-05
859.0	8.4886e-05
859.2	8.5706e-05
859.4	8.6644e-05
859.6	8.8014e-05
859.8	8.9405e-05
860.0	9.0818e-05
860.2	9.2254e-05
860.4	9.3712e-05
860.6	9.5193e-05
860.8	9.6698e-05
861.0	9.8227e-05
861.2	9.9858e-05
861.4	1.0182e-04
861.6	1.0383e-04
861.8	1.0588e-04
862.0	1.0796e-04
862.2	1.1009e-04
862.4	1.1226e-04
862.6	1.1447e-04
862.8	1.1672e-04
863.0	1.19e-04
863.2	1.2124e-04
863.4	1.2351e-04
863.6	1.2583e-04
863.8	1.2819e-04
864.0	1.306e-04
864.2	1.3305e-04
864.4	1.3555e-04
864.6	1.381e-04
864.8	1.4057e-04
865.0	1.4262e-04
865.2	1.4469e-04
865.4	1.468e-04
865.6	1.4893e-04
865.8	1.511e-04
866.0	1.5329e-04
866.2	1.5552e-04
866.4	1.5779e-04
866.6	1.5963e-04
866.8	1.5976e-04
867.0	1.5989e-04
867.2	1.6001e-04
867.4	1.6014e-04
867.6	1.6027e-04
867.8	1.604e-04
868.0	1.6052e-04
868.2	1.6133e-04
868.4	1.6214e-04
868.6	1.6101e-04
868.8	1.5954e-04
869.0	1.5809e-04
869.2	1.5665e-04
869.4	1.5522e-04
869.6	1.5381e-04
869.8	1.524e-04
870.0	1.5101e-04
870.2	1.4964e-04
870.4	1.4688e-04
870.6	1.4385e-04
870.8	1.4088e-04
871.0	1.3797e-04
871.2	1.3511e-04
871.4	1.3232e-04
871.6	1.2959e-04
871.8	1.2691e-04
872.0	1.2429e-04
872.2	1.2118e-04
872.4	1.1798e-04
872.6	1.1488e-04
872.8	1.1185e-04
873.0	1.089e-04
873.2	1.0603e-04
873.4	1.0324e-04
873.6	1.0052e-04
873.8	9.7871e-05
874.0	9.5168e-05
874.2	9.2495e-05
874.4	8.9898e-05
874.6	8.7374e-05
874.8	8.492e-05
875.0	8.2536e-05
875.2	8.0218e-05
875.4	7.7966e-05
875.6	7.5776e-05
875.8	7.3772e-05
876.0	7.1872e-05
876.2	7.002e-05
876.4	6.8216e-05
876.6	6.6458e-05
876.8	6.4746e-05
877.0	6.3078e-05
877.2	6.1453e-05
877.4	5.987e-05
877.6	5.839e-05
877.8	5.6976e-05
878.0	5.5595e-05
878.2	5.4249e-05
878.4	5.2935e-05
878.6	5.1652e-05
878.8	5.0401e-05
879.0	4.918e-05
879.2	4.7989e-05
879.4	4.6935e-05
879.6	4.596e-05
879.8	4.5006e-05
880.0	4.4072e-05
880.2	4.3157e-05
880.4	4.2261e-05
880.6	4.1384e-05
880.8	4.0525e-05
881.0	3.9683e-05
881.2	3.8927e-05
881.4	3.8223e-05
881.6	3.7532e-05
881.8	3.6854e-05
882.0	3.6188e-05
882.2	3.5534e-05
882.4	3.4892e-05
882.6	3.4261e-05
882.8	3.3642e-05
883.0	3.3067e-05
883.2	3.2522e-05
883.4	3.1985e-05
883.6	3.1458e-05
883.8	3.094e-05
884.0	3.043e-05
884.2	2.9928e-05
884.4	2.9435e-05
884.6	2.895e-05
884.8	2.8539e-05
885.0	2.818e-05
885.2	2.7825e-05
885.4	2.7475e-05
885.6	2.7129e-05
885.8	2.6788e-05
886.0	2.6451e-05
886.2	2.6118e-05
886.4	2.5789e-05
886.6	2.5491e-05
886.8	2.5216e-05
887.0	2.4944e-05
887.2	2.4675e-05
887.4	2.4408e-05
887.6	2.4145e-05
887.8	2.3885e-05
888.0	2.3627e-05
888.2	2.3372e-05
888.4	2.3155e-05
888.6	2.2969e-05
888.8	2.2784e-05
889.0	2.26e-05
889.2	2.2418e-05
889.4	2.2237e-05
889.6	2.2058e-05
889.8	2.188e-05
890.0	2.1704e-05
890.2	2.1548e-05
890.4	2.141e-05
890.6	2.1273e-05
890.8	2.1137e-05
891.0	2.1001e-05
891.2	2.0867e-05
891.4	2.0733e-05
891.6	2.06e-05
891.8	2.0468e-05
892.0	2.0347e-05
892.2	2.0235e-05
892.4	2.0123e-05
892.6	2.0013e-05
892.8	1.9902e-05
893.0	1.9793e-05
893.2	1.9684e-05
893.4	1.9575e-05
893.6	1.9467e-05
893.8	1.9417e-05
894.0	1.9416e-05
894.2	1.9416e-05
894.4	1.9416e-05
894.6	1.9416e-05
894.8	1.9415e-05
895.0	1.9415e-05
895.2	1.9415e-05
895.4	1.9415e-05
895.6	1.9435e-05
895.8	1.9473e-05
896.0	1.9512e-05
896.2	1.955e-05
896.4	1.9589e-05
896.6	1.9628e-05
896.8	1.9667e-05
897.0	1.9706e-05
897.2	1.9745e-05
897.4	1.9805e-05
897.6	1.9886e-05
897.8	1.9966e-05
898.0	2.0048e-05
898.2	2.0129e-05
898.4	2.0211e-05
898.6	2.0293e-05
898.8	2.0375e-05
899.0	2.0458e-05
899.2	2.0573e-05
899.4	2.0719e-05
899.6	2.0866e-05
899.8	2.1013e-05
900.0	2.1162e-05
900.2	2.1312e-05
900.4	2.1463e-05
900.6	2.1615e-05
900.8	2.1768e-05
901.0	2.197e-05
901.2	2.2216e-05
901.4	2.2466e-05
901.6	2.2718e-05
901.8	2.2974e-05
902.0	2.3232e-05
902.2	2.3493e-05
902.4	2.3757e-05
902.6	2.4024e-05
902.8	2.4348e-05
903.0	2.4726e-05
903.2	2.5109e-05
903.4	2.5498e-05
903.6	2.5893e-05
903.8	2.6295e-05
904.0	2.6703e-05
904.2	2.7117e-05
904.4	2.7537e-05
904.6	2.7974e-05
904.8	2.8427e-05
905.0	2.8887e-05
905.2	2.9354e-05
905.4	2.983e-05
905.6	3.0312e-05
905.8	3.0803e-05
906.0	3.1302e-05
906.2	3.1808e-05
906.4	3.2424e-05
906.6	3.3135e-05
906.8	3.3861e-05
907.0	3.4604e-05
907.2	3.5363e-05
907.4	3.6139e-05
907.6	3.6931e-05
907.8	3.7741e-05
908.0	3.8569e-05
908.2	3.9456e-05
908.4	4.0396e-05
908.6	4.1359e-05
908.8	4.2345e-05
909.0	4.3354e-05
909.2	4.4387e-05
909.4	4.5445e-05
909.6	4.6528e-05
909.8	4.7637e-05
910.0	4.8847e-05
910.2	5.0145e-05
910.4	5.1476e-05
910.6	5.2843e-05
910.8	5.4247e-05
911.0	5.5688e-05
911.2	5.7167e-05
911.4	5.8685e-05
911.6	6.0243e-05
911.8	6.1874e-05
912.0	6.357e-05
912.2	6.5313e-05
912.4	6.7103e-05
912.6	6.8943e-05
912.8	7.0833e-05
913.0	7.2775e-05
913.2	7.477e-05
913.4	7.682e-05
913.6	7.8818e-05
913.8	8.0796e-05
914.0	8.2824e-05
914.2	8.4903e-05
914.4	8.7035e-05
914.6	8.922e-05
914.8	9.1459e-05
915.0	9.3755e-05
915.2	9.6109e-05
915.4	9.8273e-05
915.6	1.0034e-04
915.8	1.0245e-04
916.0	1.046e-04
916.2	1.068e-04
916.4	1.0904e-04
916.6	1.1133e-04
916.8	1.1367e-04
917.0	1.1606e-04
917.2	1.1798e-04
917.4	1.1966e-04
917.6	1.2136e-04
917.8	1.2309e-04
918.0	1.2484e-04
918.2	1.2661e-04
918.4	1.2841e-04
918.6	1.3024e-04
918.8	1.3209e-04
919.0	1.3318e-04
919.2	1.3392e-04
919.4	1.3465e-04
919.6	1.3539e-04
919.8	1.3614e-04
920.0	1.3689e-04
920.2	1.3764e-04
920.4	1.384e-04
920.6	1.3916e-04
920.8	1.3943e-04
921.0	1.395e-04
921.2	1.3956e-04
921.4	1.3962e-04
921.6	1.3969e-04
921.8	1.3975e-04
922.0	1.3982e-04
922.2	1.3988e-04
922.4	1.3995e-04
922.6	1.3966e-04
922.8	1.3924e-04
923.0	1.3883e-04
923.2	1.3841e-04
923.4	1.38e-04
923.6	1.3759e-04
923.8	1.3718e-04
924.0	1.3678e-04
924.2	1.3637e-04
924.4	1.359e-04
924.6	1.354e-04
924.8	1.3491e-04
925.0	1.3442e-04
925.2	1.3394e-04
925.4	1.3345e-04
925.6	1.3297e-04
925.8	1.3249e-04
926.0	1.3201e-04
926.2	1.3169e-04
926.4	1.3142e-04
926.6	1.3115e-04
926.8	1.3087e-04
927.0	1.306e-04
927.2	1.3033e-04
927.4	1.3006e-04
927.6	1.2979e-04
927.8	1.2952e-04
928.0	1.2946e-04
928.2	1.2944e-04
928.4	1.2941e-04
928.6	1.2939e-04
928.8	1.2937e-04
929.0	1.2935e-04
929.2	1.2933e-04
929.4	1.2931e-04
929.6	1.2929e-04
929.8	1.2945e-04
930.0	1.2963e-04
930.2	1.2981e-04
930.4	1.3e-04
930.6	1.3018e-04
930.8	1.3036e-04
931.0	1.3055e-04
931.2	1.3073e-04
931.4	1.3092e-04
931.6	1.314e-04
931.8	1.319e-04
932.0	1.324e-04
932.2	1.3267e-04
932.4	1.3293e-04
932.6	1.3319e-04
932.8	1.3346e-04
933.0	1.3372e-04
933.2	1.3399e-04
933.4	1.3425e-04
933.6	1.3452e-04
933.8	1.3468e-04
934.0	1.3468e-04
934.2	1.3468e-04
934.4	1.3468e-04
934.6	1.3468e-04
934.8	1.3469e-04
935.0	1.3469e-04
935.2	1.3469e-04
935.4	1.3469e-04
935.6	1.3457e-04
935.8	1.3428e-04
936.0	1.3399e-04
936.2	1.3371e-04
936.4	1.3342e-04
936.6	1.3314e-04
936.8	1.3286e-04
937.0	1.3257e-04
937.2	1.3229e-04
937.4	1.3174e-04
937.6	1.309e-04
937.8	1.3006e-04
938.0	1.2922e-04
938.2	1.2839e-04
938.4	1.2756e-04
938.6	1.2675e-04
938.8	1.2593e-04
939.0	1.2512e-04
939.2	1.2407e-04
939.4	1.2277e-04
939.6	1.2149e-04
939.8	1.2022e-04
940.0	1.1896e-04
940.2	1.1772e-04
940.4	1.1649e-04
940.6	1.1527e-04
940.8	1.1406e-04
941.0	1.1274e-04
941.2	1.1132e-04
941.4	1.0991e-04
941.6	1.0852e-04
941.8	1.0715e-04
942.0	1.058e-04
942.2	1.0446e-04
942.4	1.0314e-04
942.6	1.0184e-04
942.8	1.0046e-04
943.0	9.9031e-05
943.2	9.7623e-05
943.4	9.6235e-05
943.6	9.4866e-05
943.8	9.3518e-05
944.0	9.2188e-05
944.2	9.0877e-05
944.4	8.9585e-05
944.6	8.827e-05
944.8	8.6946e-05
945.0	8.5642e-05
945.2	8.4358e-05
945.4	8.3093e-05
945.6	8.1846e-05
945.8	8.0619e-05
946.0	7.941e-05
946.2	7.8219e-05
946.4	7.7122e-05
946.6	7.6087e-05
946.8	7.5066e-05
947.0	7.4059e-05
947.2	7.3065e-05
947.4	7.2085e-05
947.6	7.1117e-05
947.8	7.0163e-05
948.0	6.9221e-05
948.2	6.8437e-05
948.4	6.7736e-05
948.6	6.7043e-05
948.8	6.6356e-05
949.0	6.5676e-05
949.2	6.5004e-05
949.4	6.4338e-05
949.6	6.3679e-05
949.8	6.3027e-05
950.0	6.2524e-05
950.2	6.2087e-05
950.4	6.1653e-05
950.6	6.1222e-05
950.8	6.0794e-05
951.0	6.0369e-05
951.2	5.9947e-05
951.4	5.9527e-05
951.6	5.9245e-05
951.8	5.9033e-05
952.0	5.8821e-05
952.2	5.861e-05
952.4	5.84e-05
952.6	5.8191e-05
952.8	5.7983e-05
953.0	5.7775e-05
953.2	5.7568e-05
953.4	5.7362e-05
953.6	5.7156e-05
953.8	5.6951e-05
954.0	5.6747e-05
954.2	5.6544e-05
954.4	5.6341e-05
954.6	5.6139e-05
954.8	5.5938e-05
955.0	5.5951e-05
955.2	5.6143e-05
955.4	5.6336e-05
955.6	5.6529e-05
955.8	5.6723e-05
956.0	5.6917e-05
956.2	5.7113e-05
956.4	5.7308e-05
956.6	5.7505e-05
956.8	5.7702e-05
957.0	5.79e-05
957.2	5.8099e-05
957.4	5.8298e-05
957.6	5.8498e-05
957.8	5.8699e-05
958.0	5.89e-05
958.2	5.9102e-05
958.4	5.9305e-05
958.6	5.9508e-05
958.8	5.9712e-05
959.0	5.9917e-05
959.2	6.0122e-05
959.4	6.0329e-05
959.6	6.0536e-05
959.8	6.0755e-05
960.0	6.127e-05
960.2	6.179e-05
960.4	6.2313e-05
960.6	6.2842e-05
960.8	6.3374e-05
961.0	6.3911e-05
961.2	6.4453e-05
961.4	6.4999e-05
961.6	6.555e-05
961.8	6.6106e-05
962.0	6.6666e-05
962.2	6.7231e-05
962.4	6.7801e-05
962.6	6.8376e-05
962.8	6.8955e-05
963.0	6.954e-05
963.2	7.0129e-05
963.4	7.0724e-05
963.6	7.1323e-05
963.8	7.1928e-05
964.0	7.2537e-05
964.2	7.3152e-05
964.4	7.3772e-05
964.6	7.4397e-05
964.8	7.5023e-05
965.0	7.5649e-05
965.2	7.628e-05
965.4	7.6916e-05
965.6	7.7558e-05
965.8	7.8205e-05
966.0	7.8858e-05
966.2	7.9516e-05
966.4	8.0179e-05
966.6	8.0848e-05
966.8	8.1523e-05
967.0	8.2203e-05
967.2	8.2889e-05
967.4	8.358e-05
967.6	8.4278e-05
967.8	8.4981e-05
968.0	8.569e-05
968.2	8.6405e-05
968.4	8.7126e-05
968.6	8.7853e-05
968.8	8.8586e-05
969.0	8.9325e-05
969.2	9.007e-05
969.4	9.0822e-05
969.6	9.1546e-05
969.8	9.1453e-05
970.0	9.1361e-05
970.2	9.1268e-05
970.4	9.1176e-05
970.6	9.1084e-05
970.8	9.0992e-05
971.0	9.09e-05
971.2	9.0808e-05
971.4	9.0717e-05
971.6	9.0625e-05
971.8	9.0533e-05
972.0	9.0442e-05
972.2	9.035e-05
972.4	9.0259e-05
972.6	9.0168e-05
972.8	9.0077e-05
973.0	8.9986e-05
973.2	8.9895e-05
973.4	8.9804e-05
973.6	8.9713e-05
973.8	8.9623e-05
974.0	8.9532e-05
974.2	8.9442e-05
974.4	8.9351e-05
974.6	8.9261e-05
974.8	8.9171e-05
975.0	8.9081e-05
975.2	8.8991e-05
975.4	8.8901e-05
975.6	8.8761e-05
975.8	8.8005e-05
976.0	8.7256e-05
976.2	8.6514e-05
976.4	8.5777e-05
976.6	8.5047e-05
976.8	8.4323e-05
977.0	8.3606e-05
977.2	8.2894e-05
977.4	8.2188e-05
977.6	8.1489e-05
977.8	8.0795e-05
978.0	8.0108e-05
978.2	7.9426e-05
978.4	7.875e-05
978.6	7.8079e-05
978.8	7.7415e-05
979.0	7.6756e-05
979.2	7.6091e-05
979.4	7.5432e-05
979.6	7.4779e-05
979.8	7.4132e-05
980.0	7.349e-05
980.2	7.2853e-05
980.4	7.2222e-05
980.6	7.1597e-05
980.8	7.0977e-05
981.0	7.0362e-05
981.2	6.9753e-05
981.4	6.9149e-05
981.6	6.855e-05
981.8	6.7956e-05
982.0	6.7368e-05
982.2	6.6785e-05
982.4	6.6206e-05
982.6	6.5633e-05
982.8	6.5065e-05
983.0	6.4501e-05
983.2	6.3943e-05
983.4	6.3389e-05
983.6	6.284e-05
983.8	6.2296e-05
984.0	6.1756e-05
